File: Li-ion_Batteries/CALCE_CX2-34_prism_LCO_25C_0-100_0.5-0.5C_e_cycle_data.csv
Cycle_Index,Start_Time,End_Time,Test_Time (s),Min_Current (A),Max_Current (A),Min_Voltage (V),Max_Voltage (V),Charge_Capacity (Ah),Discharge_Capacity (Ah),Charge_Energy (Wh),Discharge_Energy (Wh)
1.0,,,22677.132,-1.35,1.189,2.699,4.2,1.357,1.354,5.431,4.857
13.0,,,180028.711,-1.35,1.168,2.699,4.2,1.321,1.322,5.28,4.746
25.0,,,331493.217,-1.35,0.675,2.699,4.199,1.12,1.126,4.429,4.015
37.0,,,484704.685,-1.35,1.143,2.699,4.2,1.308,1.312,5.214,4.74
49.0,,,637345.81,-1.35,1.156,2.699,4.199,1.282,1.289,5.126,4.635
61.0,,,792306.874,-1.35,1.161,2.699,4.199,1.299,1.299,5.193,4.656
73.0,,,945746.864,-1.35,1.154,2.699,4.199,1.272,1.278,5.092,4.575
85.0,,,1097563.451,-1.35,1.159,2.699,4.199,1.259,1.265,5.043,4.53
97.0,,,1235483.995,-1.35,1.146,2.699,4.199,1.255,1.26,5.019,4.528
109.0,,,1375162.643,-1.35,1.159,2.699,4.199,1.272,1.279,5.092,4.602
121.0,,,1526382.039,-1.35,1.147,2.699,4.199,1.252,1.255,5.014,4.499
133.0,,,1675823.144,-1.35,1.137,2.699,4.199,1.256,1.26,5.018,4.544
145.0,,,1817679.679,-1.35,1.132,2.699,4.199,1.243,1.248,4.971,4.496
157.0,,,1967821.149,-1.35,1.147,2.699,4.199,1.261,1.269,5.044,4.574
169.0,,,2113614.875,-1.35,1.131,2.699,4.199,1.258,1.262,5.017,4.561
181.0,,,2255024.893,-1.35,0.675,2.699,4.198,1.048,1.059,4.148,3.774
193.0,,,2398776.706,-1.35,1.138,2.699,4.199,1.226,1.223,4.908,4.386
205.0,,,2548255.693,-1.35,1.149,2.699,4.199,1.269,1.272,5.072,4.581
217.0,,,2698327.569,-1.35,1.14,2.699,4.199,1.256,1.261,5.014,4.555
229.0,,,2843514.87,-1.35,1.146,2.699,4.199,1.227,1.23,4.915,4.412
241.0,,,2987599.479,-1.35,1.148,2.699,4.199,1.213,1.216,4.863,4.354
253.0,,,3134599.374,-1.35,1.142,2.699,4.199,1.211,1.217,4.85,4.372
265.0,,,3280637.954,-1.35,1.136,2.699,4.199,1.214,1.219,4.855,4.39
277.0,,,3426045.157,-1.35,1.149,2.699,4.199,1.187,1.192,4.761,4.266
289.0,,,3571046.536,-1.35,1.143,2.699,4.199,1.193,1.193,4.778,4.281
301.0,,,3715959.204,-1.35,1.156,2.699,4.199,1.176,1.248,4.739,4.503
313.0,,,3860747.68,-1.35,1.143,2.699,4.199,1.236,1.237,4.936,4.461
325.0,,,4007818.441,-1.35,1.141,2.699,4.199,1.218,1.226,4.873,4.421
337.0,,,4149863.221,-1.35,1.134,2.699,4.199,1.211,1.218,4.839,4.396
349.0,,,4291364.382,-1.35,1.134,2.699,4.199,1.201,1.195,4.804,4.29
361.0,,,4436106.249,-1.35,1.141,2.698,4.199,1.189,1.196,4.76,4.306
373.0,,,4573575.421,-1.35,1.166,2.699,4.199,1.182,1.187,4.741,4.251
385.0,,,4714097.828,-1.35,0.675,2.699,4.198,0.98,0.992,3.887,3.522
397.0,,,4857387.708,-1.35,1.141,2.699,4.199,1.167,1.172,4.68,4.202
409.0,,,5000009.548,-1.35,1.136,2.699,4.199,1.175,1.182,4.704,4.255
421.0,,,5143187.0,-1.35,1.148,2.699,4.199,1.174,1.172,4.705,4.198
433.0,,,5285595.992,-1.35,1.145,2.699,4.199,1.159,1.17,4.65,4.2
445.0,,,5427453.182,-1.35,1.15,2.699,4.199,1.152,1.157,4.624,4.143
457.0,,,5569122.618,-1.35,1.144,2.699,4.199,1.161,1.167,4.651,4.195
469.0,,,5711030.479,-1.35,1.154,2.699,4.199,1.153,1.159,4.625,4.154
481.0,,,5852506.133,-1.35,1.145,2.699,4.199,1.142,1.15,4.585,4.118
493.0,,,5993393.808,-1.35,1.15,2.699,4.199,1.146,1.149,4.595,4.118
505.0,,,6126554.22,-1.35,0.675,2.699,4.198,0.957,0.969,3.796,3.443
517.0,,,6263954.719,-1.35,1.142,2.699,4.199,1.159,1.16,4.647,4.165
529.0,,,6405114.302,-1.35,1.141,2.699,4.199,1.15,1.154,4.607,4.148
541.0,,,6534003.294,-1.35,1.14,2.699,4.199,1.147,1.145,4.597,4.108
553.0,,,6675019.094,-1.35,1.152,2.699,4.2,1.131,1.133,4.545,4.046
565.0,,,6815064.054,-1.35,1.155,2.699,4.199,1.11,1.113,4.468,3.962
577.0,,,6954618.668,-1.35,1.156,2.699,4.199,1.12,1.124,4.5,4.024
589.0,,,7093814.8,-1.35,1.155,2.699,4.199,1.11,1.131,4.478,4.051
601.0,,,7233438.303,-1.35,1.167,2.699,4.199,1.118,1.122,4.492,4.016
613.0,,,7368021.482,-1.35,1.16,2.699,4.199,1.103,1.106,4.435,3.948
625.0,,,7506093.184,-1.35,1.17,2.699,4.199,1.084,1.089,4.367,3.872
637.0,,,7643805.769,-1.35,1.178,2.699,4.199,1.082,1.086,4.358,3.863
649.0,,,7782594.318,-1.35,1.171,2.699,4.199,1.089,1.093,4.388,3.89
661.0,,,7920366.187,-1.35,1.161,2.699,4.199,1.078,1.082,4.343,3.847
673.0,,,8057455.139,-1.35,1.161,2.699,4.199,1.079,1.085,4.345,3.867
685.0,,,8190317.015,-1.35,1.179,2.699,4.2,1.067,1.071,4.303,3.806
697.0,,,8323179.856,-1.35,1.162,2.699,4.199,1.071,1.075,4.315,3.826
709.0,,,8448515.519,-1.35,1.171,2.699,4.199,1.054,1.065,4.251,3.791
721.0,,,8583697.326,-1.35,1.173,2.699,4.199,1.049,1.054,4.236,3.735
733.0,,,8719261.065,-1.35,1.191,2.699,4.199,1.037,1.041,4.191,3.682
745.0,,,8850146.975,-1.35,1.181,2.699,4.199,1.029,1.034,4.161,3.653
757.0,,,8981063.087,-1.35,1.165,2.699,4.199,1.007,1.04,4.097,3.7
769.0,,,9112326.673,-1.351,0.675,2.699,4.199,0.805,0.819,3.216,2.856
781.0,,,9248214.051,-1.419,1.18,2.699,4.199,1.03,1.036,4.163,3.661
793.0,,,9383239.232,-1.35,1.172,2.699,4.199,1.021,1.025,4.127,3.618
805.0,,,9517817.186,-1.35,1.171,2.699,4.199,1.019,1.022,4.119,3.608
817.0,,,9653032.504,-1.35,1.172,2.699,4.199,1.026,1.03,4.146,3.645
829.0,,,9782969.664,-1.35,1.189,2.699,4.199,1.01,1.015,4.086,3.58
841.0,,,9916696.906,-1.35,1.172,2.699,4.199,1.008,1.01,4.076,3.561
853.0,,,10049963.084,-1.35,1.183,2.699,4.199,1.002,1.006,4.055,3.55
865.0,,,10183710.494,-1.35,1.177,2.699,4.199,1.008,1.013,4.074,3.58
877.0,,,10316823.718,-1.35,1.207,2.699,4.2,0.999,1.005,4.041,3.548
889.0,,,10445031.564,-1.35,1.185,2.699,4.199,0.993,0.994,4.019,3.504
901.0,,,10577285.347,-1.35,1.188,2.699,4.199,0.981,0.987,3.973,3.473
913.0,,,10709629.542,-1.35,1.199,2.699,4.199,0.991,0.993,4.012,3.504
925.0,,,10841898.847,-1.35,1.203,2.699,4.199,0.988,0.992,3.998,3.496
937.0,,,10973756.856,-1.35,1.194,2.699,4.2,0.979,0.985,3.962,3.471
949.0,,,11104971.67,-1.35,1.18,2.699,4.199,0.968,0.972,3.92,3.418
961.0,,,11236399.499,-1.35,1.192,2.699,4.199,0.969,0.971,3.926,3.413
973.0,,,11366922.223,-1.35,1.186,2.699,4.199,0.962,0.966,3.897,3.401
985.0,,,11496895.388,-1.35,1.183,2.699,4.199,0.951,0.956,3.855,3.358
997.0,,,11605199.547,-1.35,0.675,2.699,4.199,0.726,0.745,2.904,2.593
1009.0,,,11733178.944,-1.35,1.173,2.699,4.199,0.945,0.95,3.826,3.346
1021.0,,,11860502.701,-1.35,1.186,2.699,4.199,0.931,0.934,3.776,3.276
1033.0,,,11987313.764,-1.35,1.181,2.699,4.199,0.919,0.925,3.728,3.24
1045.0,,,12110387.4,-1.35,1.185,2.699,4.199,0.946,0.95,3.83,3.346
1057.0,,,12238404.237,-1.35,1.184,2.699,4.199,0.943,0.948,3.819,3.333
1069.0,,,12366007.994,-1.35,1.183,2.699,4.199,0.923,0.928,3.742,3.251
1081.0,,,12492635.294,-1.35,1.191,2.699,4.199,0.916,0.92,3.716,3.221
1093.0,,,12619385.986,-1.35,1.188,2.699,4.199,0.922,0.923,3.74,3.239
1105.0,,,12744857.803,-1.35,1.185,2.699,4.199,0.894,0.899,3.627,3.153
1117.0,,,12859812.757,0.0,0.675,3.455,4.029,0.363,0.0,1.425,0.0
1129.0,,,12981624.127,-1.35,1.209,2.699,4.199,0.892,0.893,3.616,3.137
1141.0,,,13099247.362,-1.35,1.196,2.699,4.199,0.862,0.862,3.502,3.018
1153.0,,,13219395.016,-1.35,1.198,2.699,4.199,0.843,0.847,3.427,2.959
1165.0,,,13338756.18,-1.35,1.207,2.699,4.199,0.841,0.843,3.418,2.945
1177.0,,,13462475.549,-1.35,1.179,2.699,4.199,0.893,0.895,3.624,3.137
1189.0,,,13586044.222,-1.35,1.205,2.699,4.199,0.873,0.872,3.546,3.047
1201.0,,,13708309.126,-1.35,1.195,2.699,4.199,0.843,0.845,3.431,2.945
1213.0,,,13824030.594,-1.35,0.675,2.699,4.196,0.587,0.615,2.357,2.114
1225.0,,,13944201.007,-1.35,1.211,2.699,4.199,0.822,0.828,3.347,2.882
1237.0,,,14064298.468,-1.35,1.206,2.699,4.199,0.806,0.849,3.306,2.967
1249.0,,,14184897.287,-1.35,1.195,2.699,4.199,0.826,0.828,3.363,2.881
1261.0,,,14304169.278,-1.35,1.199,2.699,4.199,0.815,0.817,3.32,2.839
1273.0,,,14418797.969,-1.35,1.199,2.699,4.199,0.819,0.825,3.335,2.876
1285.0,,,14537639.02,-1.35,1.203,2.699,4.199,0.819,0.822,3.333,2.863
1297.0,,,14653109.012,-1.35,1.201,2.699,4.199,0.819,0.819,3.333,2.849
1309.0,,,14771187.294,-1.35,1.23,2.699,4.2,0.803,0.808,3.272,2.806
1321.0,,,14883992.015,-1.35,1.195,2.699,4.199,0.794,0.8,3.236,2.776
1333.0,,,14995973.939,-1.35,0.675,2.699,4.197,0.552,0.579,2.218,1.983
1345.0,,,15117150.189,-1.35,1.199,2.699,4.199,0.82,0.823,3.337,2.864
1357.0,,,15237754.301,-1.35,1.197,2.699,4.199,0.859,0.863,3.486,3.028
1369.0,,,15360027.61,-1.35,1.195,2.699,4.199,0.861,0.845,3.49,2.958
1381.0,,,15470217.044,-1.35,1.188,2.699,4.199,0.846,0.838,3.434,2.929
1393.0,,,15579443.079,-1.35,1.193,2.699,4.199,0.843,0.849,3.421,2.975
1405.0,,,15695600.846,-1.35,1.191,2.699,4.199,0.846,0.85,3.435,2.981
1417.0,,,15803126.096,-1.35,1.2,2.699,4.199,0.807,0.794,3.28,2.76
1429.0,,,15918449.036,-1.35,1.196,2.699,4.199,0.772,0.776,3.145,2.69
1441.0,,,16028484.067,-1.35,1.201,2.699,4.199,0.758,0.768,3.093,2.662
1453.0,,,16142374.02,-1.35,1.208,2.699,4.199,0.779,0.785,3.17,2.734
1465.0,,,16254042.425,-1.35,0.675,2.699,4.197,0.542,0.582,2.176,2.0
1477.0,,,16368726.301,-1.35,1.216,2.699,4.199,0.776,0.768,3.16,2.665
1489.0,,,16481298.868,-1.35,1.221,2.699,4.2,0.746,0.751,3.043,2.6
1501.0,,,16592827.597,-1.35,1.203,2.699,4.199,0.73,0.729,2.981,2.511
1513.0,,,16706746.586,-1.35,1.193,2.699,4.199,0.768,0.754,3.126,2.615
1525.0,,,16818316.822,-1.35,1.194,2.699,4.199,0.73,0.742,2.978,2.567
1537.0,,,16927829.278,-1.35,1.197,2.699,4.199,0.73,0.719,2.978,2.482
1549.0,,,17035691.106,-1.35,1.224,2.699,4.199,0.7,0.7,2.859,2.41
1561.0,,,17143565.036,-1.35,1.21,2.699,4.199,0.729,0.733,2.972,2.539
1573.0,,,17253709.282,-1.35,1.201,2.699,4.199,0.711,0.712,2.902,2.452
1585.0,,,17361365.975,-1.35,1.197,2.814,4.199,0.695,0.681,2.842,2.363
1597.0,,,17466607.799,-1.35,1.217,2.699,4.199,0.697,0.701,2.849,2.41
1609.0,,,17574004.732,-1.35,1.188,2.699,4.199,0.702,0.709,2.868,2.443
1621.0,,,17674080.329,-1.35,1.195,2.699,4.199,0.677,0.664,2.767,2.273
1633.0,,,17777857.142,-1.35,1.196,2.699,4.199,0.684,0.691,2.795,2.377
1645.0,,,17884845.064,-1.35,1.194,2.699,4.2,0.674,0.677,2.755,2.319
1657.0,,,17989383.373,-1.35,1.194,2.699,4.199,0.662,0.655,2.705,2.237
1669.0,,,18090042.873,-1.35,1.198,2.699,4.199,0.687,0.692,2.807,2.382
1681.0,,,18196407.526,-1.35,1.19,2.699,4.199,0.692,0.695,2.824,2.39
1693.0,,,18297769.496,-1.35,1.182,2.699,4.199,0.602,0.604,2.47,2.045
1705.0,,,18395032.365,-1.35,1.19,2.699,4.199,0.589,0.59,2.415,1.996
1717.0,,,18492875.522,-1.35,1.201,2.699,4.199,0.622,0.626,2.547,2.128
1729.0,,,18593261.573,-1.35,1.182,2.699,4.199,0.624,0.625,2.556,2.124
1735.0,,,18642031.842,-1.35,1.177,2.699,4.199,0.563,0.559,2.312,1.881