File: Li-ion_Batteries/CALCE_CX2-38_prism_LCO_25C_0-100_0.5-0.5C_h_cycle_data.csv
Cycle_Index,Start_Time,End_Time,Test_Time (s),Min_Current (A),Max_Current (A),Min_Voltage (V),Max_Voltage (V),Charge_Capacity (Ah),Discharge_Capacity (Ah),Charge_Energy (Wh),Discharge_Energy (Wh)
1.0,,,13790.3,-1.349,1.189,2.699,4.2,1.396,1.362,5.604,4.889
15.0,,,202245.106,-1.349,1.171,2.699,4.2,1.354,1.33,5.41,4.791
29.0,,,383390.049,-1.349,1.155,2.699,4.2,1.345,1.324,5.366,4.79
43.0,,,565507.001,-1.349,1.158,2.699,4.2,1.323,1.301,5.287,4.688
57.0,,,748618.465,-1.349,1.162,2.699,4.2,1.354,1.332,5.402,4.816
71.0,,,933128.614,-1.349,1.167,2.699,4.2,1.309,1.286,5.242,4.611
85.0,,,1114968.924,-1.349,1.159,2.699,4.2,1.293,1.272,5.176,4.567
99.0,,,1282230.792,-1.349,1.15,2.699,4.2,1.285,1.268,5.14,4.568
113.0,,,1461146.956,-1.349,1.152,2.699,4.2,1.277,1.258,5.109,4.535
127.0,,,1639142.072,-1.349,1.142,2.699,4.2,1.276,1.257,5.098,4.544
141.0,,,1812000.199,-1.349,1.144,2.699,4.2,1.265,1.238,5.055,4.454
155.0,,,1989988.72,-1.349,1.144,2.699,4.2,1.271,1.244,5.081,4.474
169.0,,,2166225.861,-1.349,1.14,2.699,4.2,1.262,1.245,5.041,4.496
183.0,,,2341647.558,-1.349,1.145,2.699,4.2,1.248,1.22,4.992,4.382
197.0,,,2517323.99,-1.349,1.147,2.699,4.2,1.268,1.25,5.07,4.512
211.0,,,2689431.632,-1.349,1.141,2.699,4.2,1.259,1.241,5.027,4.488
225.0,,,2863714.905,-1.349,1.143,2.699,4.2,1.245,1.227,4.976,4.435
239.0,,,3037346.75,-1.349,1.134,2.699,4.2,1.232,1.214,4.929,4.382
253.0,,,3200361.815,-1.349,1.163,2.699,4.2,1.235,1.215,4.956,4.357
267.0,,,3358723.114,-1.349,1.157,2.699,4.2,1.225,1.209,4.909,4.353
281.0,,,3531838.615,-1.349,1.146,2.699,4.2,1.222,1.205,4.89,4.346
295.0,,,3699734.66,-1.349,1.141,2.699,4.2,1.204,1.194,4.832,4.302
309.0,,,3872013.15,-1.349,1.152,2.699,4.2,1.221,1.202,4.896,4.326
323.0,,,4044042.47,-1.349,1.141,2.699,4.2,1.21,1.191,4.846,4.291
337.0,,,4214701.125,-1.349,1.143,2.699,4.2,1.193,1.178,4.784,4.236
351.0,,,4384849.05,-1.349,1.146,2.699,4.2,1.181,1.169,4.738,4.198
365.0,,,4556434.256,-1.349,1.147,2.699,4.2,1.202,1.182,4.815,4.255
379.0,,,4722386.156,-1.349,1.148,2.699,4.2,1.176,1.162,4.725,4.17
393.0,,,4887493.634,-1.349,0.675,2.699,4.198,0.952,0.95,3.784,3.359
407.0,,,5056588.147,-1.349,1.159,2.699,4.2,1.195,1.175,4.797,4.224
421.0,,,5227707.474,-1.349,1.158,2.699,4.2,1.189,1.171,4.767,4.213
435.0,,,5397090.386,-1.349,1.141,2.699,4.2,1.176,1.157,4.715,4.158
449.0,,,5565075.073,-1.349,1.142,2.699,4.2,1.186,1.167,4.745,4.212
463.0,,,5730571.43,-1.349,1.143,2.699,4.2,1.181,1.163,4.736,4.186
477.0,,,5895276.602,-1.349,1.149,2.699,4.2,1.167,1.147,4.681,4.12
491.0,,,6058940.989,-1.349,1.134,2.699,4.2,1.177,1.158,4.712,4.179
505.0,,,6222497.023,-1.349,1.135,2.699,4.2,1.169,1.15,4.681,4.149
519.0,,,6389966.045,-1.349,1.146,2.699,4.2,1.158,1.137,4.644,4.086
533.0,,,6552275.501,-1.349,1.153,2.699,4.2,1.155,1.137,4.632,4.09
547.0,,,6717771.845,-1.349,1.146,2.699,4.2,1.16,1.138,4.646,4.102
561.0,,,6884040.081,-1.349,1.162,2.699,4.2,1.142,1.111,4.588,3.969
575.0,,,7039034.924,-1.349,1.17,2.699,4.2,1.132,1.122,4.558,4.017
589.0,,,7205330.532,-1.349,1.162,2.699,4.2,1.127,1.108,4.53,3.96
603.0,,,7370088.3,-1.349,1.153,2.699,4.2,1.136,1.117,4.56,4.01
617.0,,,7535249.808,-1.349,1.17,2.699,4.2,1.125,1.111,4.526,3.982
631.0,,,7700153.409,-1.349,1.164,2.699,4.2,1.114,1.094,4.484,3.91
645.0,,,7859902.896,-1.349,1.162,2.699,4.2,1.106,1.089,4.451,3.893
659.0,,,8019405.59,-1.349,1.163,2.699,4.2,1.121,1.103,4.505,3.96
673.0,,,8179028.518,-1.349,1.167,2.699,4.2,1.1,1.085,4.428,3.873
687.0,,,8337455.458,-1.349,1.166,2.699,4.2,1.094,1.078,4.405,3.848
701.0,,,8500126.583,-1.349,1.157,2.699,4.2,1.109,1.091,4.454,3.915
715.0,,,8662662.713,-1.349,1.163,2.699,4.2,1.103,1.091,4.455,3.911
729.0,,,8825400.683,-1.349,1.156,2.699,4.2,1.104,1.085,4.438,3.889
743.0,,,8977514.926,-1.349,1.145,2.699,4.2,1.116,1.099,4.48,3.949
757.0,,,9135321.484,-1.349,1.168,2.699,4.2,1.078,1.067,4.344,3.81
771.0,,,9291845.37,-1.349,1.161,2.699,4.2,1.068,1.051,4.305,3.746
785.0,,,9452127.601,-1.349,1.162,2.699,4.2,1.068,1.053,4.302,3.756
799.0,,,9609388.747,-1.349,1.182,2.699,4.2,1.072,1.055,4.317,3.765
813.0,,,9761077.119,-1.349,1.167,2.699,4.2,1.056,1.038,4.26,3.693
827.0,,,9920348.791,-1.349,1.175,2.699,4.2,1.038,1.02,4.193,3.619
841.0,,,10079356.178,-1.349,1.175,2.699,4.2,1.045,1.026,4.221,3.643
855.0,,,10238793.318,-1.349,1.187,2.699,4.2,1.027,1.008,4.153,3.567
869.0,,,10392613.544,-1.349,1.183,2.699,4.2,1.015,1.003,4.105,3.555
883.0,,,10546114.966,-1.349,1.18,2.699,4.2,1.016,0.996,4.11,3.524
897.0,,,10703912.747,-1.349,1.18,2.699,4.2,1.012,0.994,4.094,3.521
911.0,,,10848809.393,-1.349,1.176,2.699,4.2,1.001,0.985,4.052,3.489
925.0,,,11003922.804,-1.349,1.178,2.699,4.2,0.985,0.966,3.987,3.417
939.0,,,11153510.444,-1.349,1.187,2.699,4.2,0.972,0.956,3.937,3.38
953.0,,,11302651.567,-1.349,1.185,2.699,4.2,0.957,0.94,3.883,3.316
967.0,,,11455255.809,-1.349,1.178,2.699,4.2,0.982,0.963,3.979,3.4
981.0,,,11606659.656,-1.349,1.186,2.699,4.2,0.973,0.955,3.945,3.372
995.0,,,11761840.007,-1.349,1.21,2.699,4.2,0.963,0.944,3.906,3.329
1009.0,,,11912640.958,-1.349,1.207,2.699,4.2,0.975,0.954,3.953,3.37
1023.0,,,12063426.047,-1.349,1.187,2.699,4.2,0.956,0.939,3.879,3.311
1037.0,,,12217602.772,-1.349,1.182,2.699,4.2,0.946,0.931,3.839,3.278
1051.0,,,12370987.116,-1.349,1.188,2.699,4.2,0.927,0.914,3.766,3.21
1065.0,,,12521175.811,-1.349,1.218,2.699,4.2,0.962,0.926,3.905,3.257
1079.0,,,12670640.304,-1.349,1.197,2.699,4.2,0.946,0.929,3.838,3.27
1093.0,,,12823914.509,-1.349,1.205,2.699,4.2,0.923,0.909,3.751,3.19
1107.0,,,12977648.348,-1.349,1.184,2.699,4.2,0.958,0.929,3.884,3.271
1121.0,,,13131237.752,-1.349,1.199,2.699,4.2,0.927,0.915,3.765,3.211
1135.0,,,13284614.499,-1.349,1.191,2.699,4.2,0.923,0.905,3.749,3.173
1149.0,,,13437452.963,-1.349,1.197,2.699,4.2,0.911,0.894,3.705,3.128
1163.0,,,13590984.971,-1.349,1.195,2.699,4.2,0.906,0.892,3.684,3.121
1177.0,,,13743527.777,-1.349,1.202,2.699,4.2,0.903,0.883,3.671,3.088
1191.0,,,13894698.535,-1.349,1.201,2.699,4.2,0.887,0.869,3.609,3.036
1205.0,,,14037842.909,-1.349,0.675,2.699,4.198,0.603,0.613,2.42,2.107
1219.0,,,14190247.576,-1.349,1.203,2.699,4.2,0.888,0.869,3.612,3.034
1233.0,,,14339534.417,-1.349,1.224,2.699,4.2,0.872,0.855,3.549,2.982
1247.0,,,14488266.4,-1.349,1.187,2.699,4.2,0.855,0.844,3.483,2.941
1261.0,,,14632749.67,-1.349,1.184,2.699,4.2,0.88,0.861,3.579,3.004
1275.0,,,14782106.594,-1.349,1.212,2.699,4.2,0.872,0.854,3.548,2.978
1289.0,,,14925175.229,-1.349,1.223,2.699,4.2,0.849,0.832,3.461,2.893
1303.0,,,15067640.154,-1.349,1.2,2.699,4.2,0.854,0.824,3.485,2.864
1317.0,,,15218202.82,-1.349,1.2,2.699,4.2,0.849,0.831,3.459,2.885
1331.0,,,15361540.814,-1.349,1.199,3.196,4.2,0.846,0.721,3.447,2.557
1345.0,,,15510499.75,-1.349,1.183,2.699,4.2,0.843,0.824,3.434,2.859
1359.0,,,15653199.558,-1.349,1.186,2.699,4.2,0.827,0.808,3.371,2.799
1373.0,,,15799500.991,-1.349,1.208,2.699,4.2,0.813,0.795,3.315,2.749
1387.0,,,15946441.961,-1.349,1.208,2.699,4.2,0.821,0.799,3.348,2.769
1401.0,,,16083709.81,-1.349,0.727,2.699,4.2,0.081,0.838,0.343,2.896
1415.0,,,16221669.358,-1.349,1.186,2.699,4.2,0.777,0.762,3.174,2.622
1429.0,,,16363429.131,-1.349,1.196,2.699,4.2,0.771,0.752,3.146,2.587
1443.0,,,16498697.75,-1.349,1.181,2.699,4.2,0.754,0.741,3.084,2.543
1457.0,,,16635051.183,-1.349,1.193,2.699,4.2,0.752,0.736,3.074,2.521
1471.0,,,16773907.73,-1.349,1.174,2.699,4.2,0.727,0.712,2.973,2.433
1485.0,,,16910849.363,-1.349,1.181,2.699,4.2,0.718,0.708,2.939,2.419
1499.0,,,17041750.678,-1.349,1.181,2.699,4.2,0.718,0.703,2.938,2.403
1513.0,,,17172700.841,-1.349,1.174,2.699,4.2,0.7,0.682,2.868,2.322
1527.0,,,17305139.157,-1.349,1.166,2.699,4.2,0.68,0.665,2.789,2.259
1541.0,,,17435833.247,-1.349,1.18,2.699,4.2,0.671,0.656,2.751,2.225
1555.0,,,17568779.563,-1.349,1.168,2.699,4.2,0.69,0.691,2.827,2.358
1569.0,,,17703389.078,-1.349,1.168,2.699,4.2,0.719,0.705,2.939,2.411
1583.0,,,17837346.033,-1.349,1.176,2.699,4.2,0.741,0.725,3.027,2.484
1597.0,,,17960635.577,-1.349,1.179,2.699,4.2,0.685,0.654,2.801,2.222
1611.0,,,18082053.605,-1.349,1.17,2.699,4.2,0.683,0.669,2.798,2.282
1625.0,,,18213565.897,-1.349,1.18,2.699,4.2,0.677,0.637,2.769,2.16
1639.0,,,18327756.325,-1.349,1.173,2.699,4.2,0.599,0.582,2.463,1.959
1653.0,,,18446135.224,-1.349,1.156,2.699,4.2,0.58,0.574,2.386,1.935
1667.0,,,18562250.038,-1.349,1.164,2.699,4.2,0.566,0.544,2.328,1.821
1681.0,,,18679170.547,-1.349,1.18,2.699,4.2,0.586,0.559,2.408,1.88
1695.0,,,18795377.898,-1.349,1.165,2.699,4.2,0.565,0.556,2.328,1.868
1709.0,,,18903229.826,-1.349,1.151,2.699,4.2,0.543,0.517,2.235,1.725
1723.0,,,19012642.66,-1.349,1.149,2.699,4.2,0.512,0.498,2.11,1.659
1737.0,,,19123084.633,-1.349,1.167,2.699,4.2,0.55,0.528,2.264,1.768
1751.0,,,19224891.826,-1.349,1.169,2.699,4.2,0.487,0.467,2.012,1.549
1765.0,,,19326289.413,-1.349,1.15,2.699,4.2,0.47,0.46,1.943,1.524
1779.0,,,19418221.47,-1.349,1.172,2.699,4.2,0.455,0.439,1.88,1.452
1793.0,,,19516195.901,-1.349,1.157,2.699,4.2,0.453,0.439,1.872,1.453
1807.0,,,19612232.305,-1.349,1.161,2.699,4.2,0.438,0.424,1.814,1.401
1821.0,,,19697629.06,-1.349,1.14,2.699,4.2,0.424,0.407,1.756,1.342
1835.0,,,19785024.497,-1.349,1.144,2.699,4.2,0.398,0.385,1.651,1.268
1849.0,,,19872305.8,-1.349,1.127,2.699,4.2,0.37,0.36,1.534,1.18
1863.0,,,19957254.237,-1.349,1.141,2.699,4.2,0.433,0.405,1.792,1.33
1877.0,,,20045565.369,-1.349,1.132,2.699,4.2,0.376,0.37,1.56,1.216
1891.0,,,20129254.315,-1.349,1.13,2.699,4.2,0.367,0.352,1.522,1.154
1905.0,,,20211888.343,-1.349,1.123,2.699,4.2,0.39,0.379,1.615,1.248
1919.0,,,20297475.987,-1.349,1.117,2.699,4.2,0.36,0.319,1.496,1.044
1933.0,,,20367280.807,-1.349,1.116,2.699,4.2,0.326,0.321,1.354,1.047
1947.0,,,20437745.505,-1.349,1.132,2.699,4.2,0.283,0.277,1.179,0.899
1961.0,,,20513586.591,-1.35,1.125,2.699,4.2,0.341,0.337,1.415,1.102