File: Li-ion_Batteries/CALCE_CX2-33_prism_LCO_25C_0-100_0.5-0.5C_d_cycle_data.csv
Cycle_Index,Start_Time,End_Time,Test_Time (s),Min_Current (A),Max_Current (A),Min_Voltage (V),Max_Voltage (V),Charge_Capacity (Ah),Discharge_Capacity (Ah),Charge_Energy (Wh),Discharge_Energy (Wh)
1.0,,,12923.434,-0.674,1.124,2.699,4.2,0.604,1.292,2.5,4.758
13.0,,,210770.978,-0.674,1.125,2.699,4.2,1.287,1.289,5.159,4.766
25.0,,,398252.295,-0.674,1.133,2.699,4.2,1.282,1.288,5.142,4.772
37.0,,,593824.961,-0.674,1.122,2.699,4.2,1.281,1.28,5.128,4.736
49.0,,,788526.565,-0.674,1.113,2.699,4.2,1.286,1.288,5.141,4.788
61.0,,,982660.184,-0.674,1.127,2.699,4.2,1.267,1.268,5.08,4.69
73.0,,,1176629.238,-0.674,1.135,2.699,4.2,1.255,1.277,5.054,4.717
85.0,,,1371477.952,-0.674,1.124,2.699,4.2,1.283,1.284,5.127,4.772
97.0,,,1560668.663,-0.674,0.675,2.699,4.197,1.064,1.071,4.219,3.927
109.0,,,1753610.398,-0.674,1.119,2.699,4.2,1.263,1.256,5.055,4.649
121.0,,,1945751.354,-0.674,1.114,2.699,4.2,1.272,1.274,5.079,4.739
133.0,,,2139604.92,-0.674,1.141,2.699,4.2,1.256,1.256,5.034,4.644
145.0,,,2318355.03,0.0,0.675,3.155,3.946,0.442,0.0,1.705,0.0
157.0,,,2486455.467,-0.674,1.125,2.699,4.2,1.243,1.244,4.988,4.6
169.0,,,2677322.137,-0.674,1.122,2.699,4.2,1.238,1.24,4.964,4.59
181.0,,,2867469.114,-0.674,1.106,2.699,4.2,1.248,1.25,4.992,4.641
193.0,,,3057175.822,-0.674,1.11,2.699,4.2,1.235,1.243,4.949,4.612
205.0,,,3247173.058,-0.674,1.12,2.699,4.2,1.248,1.254,5.003,4.65
217.0,,,3437386.075,-0.674,1.106,2.699,4.2,1.247,1.248,4.985,4.636
229.0,,,3626416.317,-0.674,1.123,2.699,4.2,1.235,1.23,4.942,4.556
241.0,,,3806249.615,-0.674,1.113,2.699,4.2,1.224,1.226,4.904,4.543
253.0,,,3994736.136,-0.674,1.123,2.699,4.2,1.208,1.228,4.878,4.535
265.0,,,4168585.527,-0.674,1.077,2.699,4.2,0.269,1.212,1.129,4.472
277.0,,,4351836.736,-0.674,1.135,2.699,4.2,1.198,1.199,4.817,4.422
289.0,,,4533742.83,-0.674,1.122,2.699,4.2,1.201,1.2,4.822,4.437
301.0,,,4715817.145,-0.674,1.11,2.699,4.2,1.212,1.212,4.855,4.492
313.0,,,4901676.303,-0.674,1.117,2.699,4.2,1.192,1.203,4.784,4.454
325.0,,,5089898.676,-0.674,1.126,2.699,4.2,1.2,1.201,4.821,4.436
337.0,,,5276201.48,-0.674,1.121,2.699,4.2,1.195,1.198,4.796,4.429
349.0,,,5461991.233,-0.674,1.108,2.699,4.2,1.206,1.21,4.829,4.489
361.0,,,5638468.636,-0.674,1.118,2.699,4.2,1.198,1.196,4.804,4.426
373.0,,,5816891.359,-0.674,1.139,2.699,4.2,1.193,1.204,4.797,4.451
385.0,,,5997504.237,-0.674,1.137,2.699,4.2,1.171,1.168,4.714,4.299
397.0,,,6181694.781,-0.674,1.13,2.699,4.2,1.175,1.175,4.723,4.34
409.0,,,6360695.434,-0.674,1.128,2.699,4.2,1.171,1.171,4.704,4.327
421.0,,,6539852.103,-0.674,1.138,2.699,4.2,1.173,1.17,4.715,4.321
433.0,,,6717939.29,-0.674,1.139,2.699,4.2,1.152,1.153,4.637,4.249
445.0,,,6899875.751,-0.674,1.135,2.699,4.2,1.152,1.151,4.636,4.245
457.0,,,7081167.074,-0.674,1.145,2.699,4.2,1.141,1.138,4.595,4.191
469.0,,,7263092.229,-0.674,1.147,2.699,4.2,1.147,1.146,4.624,4.215
481.0,,,7444727.61,-0.674,1.141,2.699,4.2,1.134,1.135,4.573,4.174
493.0,,,7624814.04,-0.674,1.156,2.699,4.2,1.134,1.133,4.575,4.165
505.0,,,7800222.948,-0.674,1.167,2.699,4.2,1.121,1.121,4.523,4.117
517.0,,,7979569.764,-0.674,1.151,2.699,4.2,1.115,1.113,4.499,4.088
529.0,,,8158136.407,-0.674,1.141,2.699,4.2,1.109,1.11,4.474,4.079
541.0,,,8337942.647,-0.674,1.147,2.699,4.2,1.117,1.115,4.506,4.093
553.0,,,8516725.464,-0.674,1.147,2.699,4.2,1.108,1.108,4.471,4.068
565.0,,,8689338.987,-0.674,0.674,2.699,4.197,0.862,0.872,3.441,3.157
577.0,,,8866546.75,-0.674,1.142,2.699,4.2,1.1,1.099,4.437,4.039
589.0,,,9044759.114,-0.674,1.159,2.699,4.2,1.105,1.105,4.463,4.057
601.0,,,9217255.836,-0.674,1.154,2.699,4.2,1.094,1.097,4.419,4.029
613.0,,,9374092.497,-0.674,1.161,2.699,4.2,1.083,1.083,4.378,3.971
625.0,,,9549574.303,-0.674,1.154,2.699,4.2,1.078,1.077,4.358,3.946
637.0,,,9724369.741,-0.674,1.173,2.699,4.2,1.069,1.07,4.323,3.92
649.0,,,9898528.107,-0.674,1.149,2.699,4.2,1.067,1.068,4.314,3.914
661.0,,,10074205.792,-0.674,1.176,2.699,4.2,1.078,1.077,4.353,3.947
673.0,,,10248998.678,-0.674,1.16,2.699,4.2,1.074,1.071,4.337,3.928
685.0,,,10417836.895,-0.674,1.155,2.699,4.2,1.064,1.061,4.301,3.888
697.0,,,10591118.127,-0.674,1.145,2.699,4.2,1.056,1.057,4.269,3.872
709.0,,,10765482.597,-0.674,1.163,2.699,4.2,1.069,1.074,4.32,3.938
721.0,,,10939260.87,-0.674,1.181,2.699,4.2,1.053,1.057,4.259,3.869
733.0,,,11111905.068,-0.674,1.19,2.699,4.2,1.042,1.041,4.217,3.804
745.0,,,11283678.42,-0.674,1.172,2.699,4.2,1.038,1.04,4.204,3.804
757.0,,,11456257.326,-0.674,1.165,2.699,4.2,1.058,1.055,4.276,3.862
769.0,,,11629762.74,-0.674,1.156,2.699,4.2,1.054,1.051,4.261,3.843
781.0,,,11802163.591,-0.674,1.156,2.699,4.2,1.043,1.041,4.217,3.805
793.0,,,11968619.413,-0.674,1.175,2.699,4.2,1.037,1.038,4.193,3.797
805.0,,,12135523.985,-0.674,1.171,2.699,4.2,1.05,1.045,4.246,3.821
817.0,,,12303260.636,-0.674,1.172,2.699,4.2,1.044,1.045,4.218,3.826
829.0,,,12474929.063,-0.674,1.159,2.699,4.2,1.034,1.035,4.183,3.783
841.0,,,12635276.52,-0.674,1.161,2.699,4.2,1.026,1.026,4.151,3.746
853.0,,,12805989.113,-0.674,1.159,2.699,4.2,1.024,1.026,4.142,3.747
865.0,,,12962007.672,-0.674,1.161,2.699,4.2,1.02,1.018,4.126,3.717
877.0,,,13125622.258,-0.674,1.171,2.699,4.2,1.002,1.002,4.06,3.652
889.0,,,13293727.2,-0.674,1.168,2.699,4.2,1.006,1.005,4.072,3.666
901.0,,,13462204.097,-0.674,1.165,2.699,4.2,1.001,1.001,4.055,3.648
913.0,,,13632636.951,-0.674,1.168,2.699,4.2,1.019,1.017,4.123,3.711
925.0,,,13789701.458,0.0,0.675,3.293,3.927,0.199,0.0,0.77,0.0
937.0,,,13952760.461,-0.674,1.175,2.699,4.2,1.004,1.006,4.065,3.663
949.0,,,14121724.437,-0.674,1.162,2.699,4.2,1.002,1.0,4.057,3.643
961.0,,,14290040.861,-0.674,1.188,2.699,4.2,0.997,0.996,4.036,3.628
973.0,,,14454974.81,-0.674,1.18,2.699,4.2,0.988,0.989,4.001,3.601
985.0,,,14621779.27,-0.674,1.17,2.699,4.2,0.981,0.981,3.977,3.571
997.0,,,14789018.059,-0.674,1.163,2.699,4.2,0.984,0.985,3.985,3.586
1009.0,,,14956043.999,-0.674,1.164,2.699,4.2,0.982,0.982,3.977,3.573
1021.0,,,15123808.807,-0.674,1.159,2.699,4.2,0.996,1.004,4.033,3.66
1033.0,,,15294353.713,-0.674,1.171,2.699,4.2,0.99,1.002,4.009,3.646
1045.0,,,15453994.749,-0.674,1.152,2.699,4.2,1.03,1.031,4.157,3.768
1057.0,,,15627289.711,-0.674,1.169,2.699,4.2,0.998,1.004,4.038,3.658
1069.0,,,15770674.241,-0.674,1.147,2.699,4.2,1.022,1.025,4.127,3.744
1081.0,,,15944284.734,-0.674,1.146,2.699,4.2,1.039,1.03,4.191,3.759
1093.0,,,16100872.494,-0.674,1.159,2.699,4.2,1.004,1.008,4.061,3.675
1105.0,,,16270371.711,-0.674,1.172,2.699,4.2,0.993,1.0,4.018,3.639
1117.0,,,16435471.667,-0.674,1.15,2.699,4.2,1.021,1.014,4.125,3.7
1129.0,,,16597411.114,-0.674,1.187,2.699,4.2,0.987,0.996,3.996,3.625
1141.0,,,16767294.462,-0.674,1.17,2.699,4.2,0.974,0.98,3.946,3.558
1153.0,,,16936649.807,-0.674,1.179,2.699,4.2,0.974,0.973,3.943,3.531
1165.0,,,17102683.664,-0.674,1.152,2.699,4.2,1.013,1.015,4.09,3.702
1177.0,,,17273369.99,-0.674,1.164,2.699,4.2,0.935,0.966,3.814,3.525
1189.0,,,17442828.17,-0.674,1.17,2.699,4.2,0.974,0.977,3.944,3.547
1201.0,,,17596509.653,-0.674,1.158,2.699,4.2,0.979,0.986,3.962,3.587
1213.0,,,17758315.288,-0.674,1.179,2.699,4.2,0.95,0.959,3.857,3.482
1225.0,,,17925533.237,-0.674,1.163,2.699,4.2,0.983,0.984,3.974,3.582
1237.0,,,18094812.702,-0.674,1.164,2.699,4.2,0.957,0.954,3.877,3.458
1249.0,,,18263962.719,-0.674,1.183,2.699,4.2,0.962,0.965,3.897,3.499
1261.0,,,18432194.295,-0.674,1.168,2.699,4.2,0.982,0.984,3.973,3.582
1273.0,,,18602349.608,-0.674,1.177,2.699,4.2,0.951,0.95,3.855,3.448
1285.0,,,18768627.503,-0.674,1.183,2.699,4.2,0.934,0.926,3.791,3.354
1297.0,,,18935597.497,-0.674,1.166,2.699,4.2,0.964,0.952,3.903,3.448
1309.0,,,19088655.773,-0.674,1.151,2.699,4.2,0.575,0.937,2.377,3.405
1321.0,,,19248508.352,-0.674,1.178,2.699,4.2,0.923,0.921,3.749,3.331
1333.0,,,19412590.886,-0.674,1.173,2.699,4.2,0.942,0.945,3.819,3.425
1345.0,,,19580742.022,-0.674,1.169,2.699,4.2,0.949,0.93,3.84,3.36
1357.0,,,19744808.935,-0.674,1.172,2.699,4.2,0.924,0.92,3.752,3.336
1369.0,,,19894862.022,-0.674,1.187,2.699,4.2,0.913,0.913,3.712,3.29
1381.0,,,20046977.546,-0.674,1.177,2.699,4.2,0.904,0.893,3.677,3.212
1393.0,,,20211884.873,-0.674,1.175,2.699,4.2,0.934,0.938,3.789,3.392
1405.0,,,20364967.734,-0.674,1.179,2.699,4.2,0.9,0.888,3.655,3.199
1417.0,,,20521797.544,-0.674,1.213,2.699,4.2,0.843,0.856,3.439,3.078
1429.0,,,20681582.761,-0.674,1.181,2.699,4.2,0.885,0.888,3.599,3.201
1441.0,,,20835070.897,-0.674,1.186,3.349,4.2,0.824,0.383,3.362,1.458
1453.0,,,20981207.614,-0.674,0.675,2.699,4.196,0.547,0.563,2.198,1.991
1465.0,,,21131550.093,-0.674,0.675,2.699,4.196,0.581,0.601,2.33,2.137
1477.0,,,21289909.916,-0.674,1.205,2.699,4.2,0.819,0.825,3.345,2.953
1489.0,,,21437882.952,-0.674,0.675,2.699,4.195,0.514,0.534,2.068,1.884
1501.0,,,21593304.935,-0.674,1.2,2.699,4.2,0.8,0.812,3.272,2.903
1513.0,,,21741968.854,-0.674,1.203,2.699,4.2,0.749,0.746,3.073,2.654
1525.0,,,21894035.361,-0.674,1.2,2.699,4.2,0.811,0.812,3.312,2.902
1537.0,,,22044347.266,-0.674,1.216,2.699,4.2,0.74,0.737,3.038,2.616
1549.0,,,22185986.395,-0.674,1.217,2.699,4.2,0.735,0.731,3.019,2.592
1561.0,,,22318020.092,-0.674,1.209,2.699,4.2,0.728,0.725,2.991,2.572
1573.0,,,22460154.14,-0.674,1.236,2.699,4.2,0.7,0.7,2.878,2.479
1585.0,,,22598693.343,-0.674,1.202,2.699,4.2,0.674,0.671,2.777,2.369
1597.0,,,22721254.872,-0.674,1.205,2.699,4.2,0.667,0.664,2.748,2.344
1609.0,,,22856083.851,-0.674,1.25,2.699,4.2,0.703,0.7,2.89,2.472
1621.0,,,22995387.696,-0.674,1.214,2.699,4.2,0.663,0.654,2.73,2.306
1633.0,,,23129198.327,-0.674,1.198,2.699,4.2,0.64,0.634,2.636,2.235
1645.0,,,23260370.391,-0.674,1.196,2.699,4.2,0.631,0.633,2.602,2.229
1657.0,,,23386842.54,-0.674,1.19,2.699,4.2,0.627,0.621,2.587,2.184
1669.0,,,23513645.317,-0.674,1.234,2.699,4.2,0.602,0.6,2.483,2.112
1681.0,,,23638907.956,-0.674,1.19,2.699,4.2,0.613,0.613,2.525,2.161
1693.0,,,23759132.035,-0.674,1.209,2.699,4.2,0.603,0.61,2.488,2.148
1701.0,,,23841386.94,-0.674,1.214,2.699,4.2,0.557,0.56,2.301,1.963