File: Li-ion_Batteries/CALCE_CX2-16_prism_LCO_25C_0-100_0.5-0.5C_a_cycle_data.csv
Cycle_Index,Start_Time,End_Time,Test_Time (s),Min_Current (A),Max_Current (A),Min_Voltage (V),Max_Voltage (V),Charge_Capacity (Ah),Discharge_Capacity (Ah),Charge_Energy (Wh),Discharge_Energy (Wh)
1.0,,,10907.674,-0.55,0.905,2.699,4.201,0.108,1.268,0.455,4.717
15.0,,,257839.005,-0.55,1.281,2.699,4.2,1.265,1.267,5.057,4.726
29.0,,,499063.597,-0.55,1.285,2.699,4.2,1.262,1.262,5.05,4.704
43.0,,,744392.672,-0.55,1.314,2.699,4.2,1.256,1.257,5.024,4.685
57.0,,,990028.175,-0.55,1.29,2.699,4.207,1.268,1.267,5.067,4.725
71.0,,,1230390.346,-0.55,1.304,2.699,4.202,1.261,1.259,5.038,4.698
85.0,,,1474617.823,-0.55,1.303,2.699,4.206,1.252,1.252,5.01,4.664
99.0,,,1705094.495,-0.55,1.336,2.699,4.203,1.249,1.247,4.999,4.642
113.0,,,1948262.513,-0.55,1.32,2.699,4.2,1.248,1.248,4.987,4.653
127.0,,,2191038.33,-0.55,1.286,2.699,4.2,1.24,1.24,4.963,4.617
141.0,,,2428717.216,-0.55,1.325,2.699,4.201,1.239,1.239,4.956,4.617
155.0,,,2653775.791,-0.55,1.323,2.699,4.202,1.241,1.239,4.966,4.614
169.0,,,2891129.759,-0.55,1.306,2.699,4.201,1.235,1.233,4.941,4.594
183.0,,,3127860.931,-0.55,0.675,2.699,4.198,1.025,1.03,4.06,3.796
197.0,,,3368598.575,-0.55,1.337,2.699,4.208,1.225,1.226,4.902,4.568
211.0,,,3611919.547,-0.55,1.32,2.699,4.2,1.228,1.228,4.921,4.561
225.0,,,3848453.48,-0.55,1.323,2.699,4.2,1.22,1.22,4.889,4.533
239.0,,,4088797.629,-0.55,1.287,2.699,4.2,1.217,1.217,4.873,4.525
253.0,,,4329036.597,-0.55,1.303,2.699,4.2,1.216,1.216,4.873,4.523
267.0,,,4568489.311,-0.55,1.299,2.699,4.2,1.214,1.213,4.859,4.516
281.0,,,4807102.715,-0.55,1.296,2.699,4.2,1.207,1.207,4.834,4.492
295.0,,,5040440.143,-0.55,0.675,2.699,4.199,0.996,1.002,3.949,3.685
309.0,,,5276718.625,-0.55,1.22,3.165,4.2,1.212,0.596,4.857,2.309
323.0,,,5507801.924,-0.55,1.219,2.699,4.2,1.203,1.203,4.824,4.468
337.0,,,5746436.077,-0.55,1.229,2.699,4.2,1.2,1.2,4.812,4.461
351.0,,,5984535.455,-0.55,1.23,2.699,4.2,1.199,1.2,4.805,4.462
365.0,,,6222880.429,-0.55,1.231,2.699,4.2,1.195,1.195,4.797,4.436
379.0,,,6460744.537,-0.55,1.256,2.699,4.2,1.189,1.19,4.773,4.419
393.0,,,6697847.649,-0.55,1.228,2.699,4.2,1.184,1.184,4.751,4.392
407.0,,,6934472.843,-0.55,1.219,2.699,4.2,1.182,1.181,4.745,4.384
421.0,,,7171509.477,-0.55,1.222,2.699,4.2,1.184,1.184,4.749,4.394
435.0,,,7381071.376,-0.55,1.242,2.699,4.2,1.182,1.177,4.744,4.368
449.0,,,7616883.57,-0.55,1.216,2.699,4.2,1.176,1.178,4.718,4.376
463.0,,,7852218.401,-0.55,1.231,2.699,4.2,1.172,1.173,4.704,4.353
477.0,,,8087151.99,-0.55,1.257,2.699,4.2,1.168,1.168,4.689,4.33
491.0,,,8311100.586,-0.55,1.236,2.699,4.2,1.183,1.188,4.743,4.42
505.0,,,8547194.333,-0.55,1.193,2.699,4.2,1.203,1.205,4.803,4.498
519.0,,,8757399.773,-0.55,1.203,2.699,4.2,1.189,1.194,4.762,4.449
533.0,,,8981274.902,0.0,1.199,3.162,4.2,1.186,0.0,4.746,0.0
547.0,,,9204029.696,-0.55,1.202,2.699,4.2,1.188,1.188,4.751,4.425
561.0,,,9439070.841,-0.55,1.188,2.699,4.2,1.196,1.197,4.777,4.466
575.0,,,9661557.367,-0.55,1.208,2.699,4.2,1.179,1.179,4.721,4.383
589.0,,,9895835.22,-0.55,1.199,2.699,4.2,1.182,1.178,4.724,4.381
603.0,,,10130299.446,-0.55,1.183,2.699,4.2,1.193,1.194,4.765,4.459
617.0,,,10364016.268,-0.55,1.2,2.699,4.2,1.169,1.169,4.682,4.344
631.0,,,10590981.377,-0.55,1.204,2.699,4.2,1.188,1.184,4.754,4.403
645.0,,,10808879.504,-0.55,1.199,2.699,4.2,1.176,1.179,4.707,4.385
659.0,,,11042064.999,-0.55,1.184,2.699,4.2,1.181,1.182,4.719,4.407
673.0,,,11275677.647,-0.55,1.176,2.699,4.2,1.178,1.174,4.708,4.369
687.0,,,11509269.202,-0.55,1.193,2.699,4.2,1.181,1.179,4.722,4.389
701.0,,,11743318.074,-0.55,1.173,2.699,4.199,1.19,1.192,4.749,4.45
715.0,,,11971210.529,-0.55,1.195,2.699,4.2,1.159,1.159,4.643,4.308
729.0,,,12203036.63,-0.55,1.177,2.699,4.199,1.175,1.178,4.695,4.392
743.0,,,12437003.767,-0.55,1.196,2.699,4.2,1.169,1.167,4.678,4.336
757.0,,,12659413.876,-0.55,1.193,2.699,4.2,1.149,1.15,4.605,4.272
771.0,,,12890080.673,-0.55,1.166,2.699,4.199,1.17,1.171,4.677,4.364
785.0,,,13120681.808,-0.55,1.186,2.699,4.2,1.14,1.139,4.568,4.226
799.0,,,13350808.532,-0.55,1.188,2.699,4.2,1.164,1.164,4.658,4.329
813.0,,,13573173.011,-0.55,1.205,2.699,4.2,1.139,1.135,4.568,4.207
827.0,,,13801062.636,-0.55,1.203,2.699,4.2,1.123,1.122,4.51,4.158
841.0,,,14028702.152,-0.55,1.201,2.699,4.2,1.141,1.143,4.57,4.25
855.0,,,14241950.879,-0.55,1.188,2.699,4.2,1.127,1.131,4.519,4.196
869.0,,,14468670.904,-0.55,1.184,2.699,4.2,1.13,1.135,4.529,4.216
883.0,,,14696985.339,-0.55,1.195,2.699,4.2,1.123,1.122,4.501,4.159
897.0,,,14922953.007,-0.55,1.2,2.699,4.2,1.114,1.111,4.468,4.119
911.0,,,15149872.069,-0.55,1.181,2.699,4.199,1.133,1.134,4.537,4.214
925.0,,,15365979.72,-0.55,1.197,2.699,4.2,1.102,1.106,4.426,4.101
939.0,,,15590600.978,-0.55,1.186,2.699,4.2,1.122,1.123,4.495,4.172
953.0,,,15816683.968,-0.55,1.18,2.699,4.199,1.118,1.121,4.48,4.165
967.0,,,16116594.73,-0.55,1.215,2.699,4.2,1.091,1.097,4.381,4.06
981.0,,,16341388.355,-0.55,1.205,2.699,4.2,1.096,1.107,4.402,4.1
995.0,,,16563669.658,-0.55,1.194,2.699,4.2,1.102,1.104,4.42,4.091
1009.0,,,16787069.58,-0.55,1.209,2.699,4.2,1.072,1.071,4.314,3.955
1023.0,,,17006665.567,-0.55,1.204,2.699,4.2,1.067,1.067,4.295,3.939
1037.0,,,17224073.91,-0.55,1.207,2.699,4.2,1.065,1.067,4.285,3.939
1051.0,,,17442864.938,-0.55,1.218,2.699,4.2,1.054,1.054,4.244,3.885
1065.0,,,17659922.394,-0.55,1.217,2.699,4.2,1.041,1.041,4.197,3.832
1079.0,,,17858668.65,-0.55,1.256,2.699,4.2,1.04,1.036,4.187,3.818
1093.0,,,18074772.726,-0.55,1.234,2.699,4.2,1.047,1.047,4.21,3.862
1107.0,,,18291872.592,-0.55,1.265,2.699,4.2,1.035,1.032,4.166,3.8
1121.0,,,18502698.18,-0.55,1.246,2.699,4.2,1.034,1.032,4.163,3.803
1135.0,,,18684544.501,-0.674,0.675,2.699,4.199,0.782,0.795,3.117,2.87
1149.0,,,18876800.619,-0.674,1.247,2.699,4.2,0.988,0.988,3.987,3.606
1163.0,,,19068608.791,-0.675,1.259,2.699,4.2,0.979,0.981,3.953,3.575
1177.0,,,19931313.214,-0.675,1.246,2.699,4.2,1.005,1.008,4.047,3.682
1191.0,,,20119073.979,-0.674,1.263,2.699,4.2,0.994,0.991,4.006,3.62
1205.0,,,20310965.497,-0.674,1.244,2.699,4.2,0.984,0.984,3.966,3.593
1219.0,,,20504049.871,-0.675,1.274,2.699,4.2,0.982,0.981,3.96,3.578
1233.0,,,20698194.398,-0.675,1.245,2.699,4.2,0.984,0.984,3.97,3.585
1247.0,,,20892087.869,-0.674,1.253,2.699,4.2,0.982,0.977,3.958,3.556
1261.0,,,21084859.65,-0.675,1.254,2.699,4.2,0.964,0.965,3.895,3.51
1275.0,,,21278223.495,-0.675,1.232,2.699,4.2,1.036,1.016,4.159,3.705
1289.0,,,21463493.14,-0.674,0.876,2.699,4.2,0.097,1.028,0.409,3.727
1303.0,,,21659026.572,-0.674,1.25,2.699,4.2,0.982,0.985,3.96,3.58
1317.0,,,21856721.751,-0.675,1.253,2.699,4.2,1.012,1.015,4.073,3.701
1331.0,,,22054962.891,-0.674,1.242,2.699,4.2,0.97,0.97,3.913,3.524
1345.0,,,22246767.529,-0.675,1.262,2.699,4.2,0.972,0.975,3.924,3.544
1359.0,,,22447574.402,-0.675,1.241,2.699,4.2,1.022,1.025,4.111,3.737
1373.0,,,22645045.058,-0.674,1.243,2.699,4.2,0.997,0.979,4.017,3.561
1387.0,,,22839923.417,-0.675,1.273,2.699,4.2,0.957,0.96,3.863,3.486
1401.0,,,23037510.204,-0.674,1.26,2.699,4.2,0.965,0.965,3.895,3.5
1415.0,,,23215212.661,-0.674,1.25,2.699,4.2,0.956,0.952,3.86,3.45
1429.0,,,23411067.774,-0.675,1.26,2.699,4.2,0.982,0.988,3.961,3.59
1443.0,,,23609514.326,-0.675,1.25,2.699,4.2,0.999,0.997,4.024,3.625
1457.0,,,23808536.273,-0.674,1.247,2.699,4.2,0.967,0.967,3.901,3.505
1471.0,,,24009370.235,-0.674,1.248,2.699,4.2,0.972,0.969,3.922,3.512
1485.0,,,24206812.951,-0.674,1.251,2.699,4.2,0.97,0.978,3.916,3.547
1499.0,,,24405723.011,-0.674,1.24,2.699,4.2,0.987,0.971,3.975,3.517
1513.0,,,24601596.768,-0.675,1.276,2.699,4.2,0.963,0.958,3.885,3.464
1527.0,,,24801359.988,-0.675,1.248,2.699,4.2,0.955,0.956,3.857,3.454
1541.0,,,25010119.733,-0.675,1.231,2.699,4.199,1.037,1.016,4.164,3.685
1555.0,,,25213193.593,-0.675,1.257,2.699,4.2,0.959,0.955,3.872,3.452
1569.0,,,25420392.326,-0.675,1.242,2.699,4.199,1.025,1.023,4.124,3.715
1583.0,,,25622473.051,-0.675,1.253,2.699,4.2,0.931,0.942,3.768,3.397
1597.0,,,25815357.803,-0.674,1.264,2.699,4.2,0.965,0.97,3.897,3.507
1611.0,,,26006163.474,-0.675,0.674,2.699,4.197,0.744,0.761,2.956,2.736
1625.0,,,26197233.305,-0.675,0.675,2.699,4.195,0.705,0.717,2.807,2.568
1639.0,,,26406608.074,-0.675,1.238,2.699,4.199,1.028,1.031,4.138,3.739
1653.0,,,26612063.982,-0.674,1.263,2.699,4.2,0.976,0.982,3.941,3.547
1667.0,,,26805601.421,-0.674,0.985,2.699,4.2,0.129,0.994,0.544,3.565
1681.0,,,27008856.244,-0.675,1.255,2.699,4.2,0.957,0.976,3.87,3.52
1695.0,,,27210999.692,-0.675,1.243,2.699,4.199,1.021,1.022,4.113,3.7
1709.0,,,27418518.241,-0.675,1.264,2.699,4.2,0.931,0.93,3.768,3.339
1723.0,,,27621132.876,-0.674,1.262,2.699,4.2,0.912,0.912,3.696,3.271
1737.0,,,27830365.026,-0.675,1.251,2.699,4.199,1.01,1.009,4.073,3.648
1751.0,,,28028871.002,-0.674,1.258,2.699,4.2,0.952,0.93,3.845,3.337
1765.0,,,28224326.35,-0.674,1.256,2.699,4.2,0.906,0.904,3.672,3.239
1779.0,,,28427543.573,-0.675,1.271,2.699,4.2,0.891,0.886,3.61,3.171
1793.0,,,28630052.529,-0.675,1.289,2.699,4.2,0.941,0.949,3.807,3.41
1807.0,,,28820973.22,-0.675,1.289,2.699,4.2,0.958,0.936,3.87,3.353
1821.0,,,29014651.803,-0.675,1.254,2.699,4.2,0.942,0.931,3.816,3.344
1835.0,,,29224022.622,-0.675,1.266,2.699,4.2,0.898,0.893,3.642,3.192
1849.0,,,29415364.529,-0.675,1.226,2.699,4.2,0.872,0.857,3.54,3.063
1863.0,,,29610343.058,-0.675,1.296,2.699,4.2,0.889,0.905,3.608,3.238
1877.0,,,29804608.51,-0.675,1.262,2.699,4.2,0.894,0.866,3.618,3.09
1891.0,,,29996546.241,-0.674,1.268,2.699,4.2,0.84,0.837,3.413,2.985
1905.0,,,30186450.17,-0.674,1.259,2.699,4.199,0.954,0.955,3.859,3.429
1919.0,,,30380611.973,-0.675,1.283,2.699,4.2,0.905,0.899,3.672,3.216
1933.0,,,30576318.163,-0.675,1.287,2.699,4.199,0.949,0.952,3.84,3.411
1947.0,,,30765218.866,-0.675,0.674,2.699,4.198,0.574,0.583,2.294,2.073
1961.0,,,30962077.427,-0.675,1.278,2.699,4.2,0.838,0.833,3.405,2.965
1975.0,,,31158396.698,-0.675,1.266,2.699,4.2,0.869,0.875,3.529,3.119
1989.0,,,31347174.375,-0.675,1.232,2.699,4.2,0.853,0.822,3.457,2.924
2003.0,,,31545127.565,-0.675,1.263,2.699,4.199,0.905,0.915,3.672,3.266
2016.0,,,31727609.18,-0.675,1.31,2.699,4.2,0.829,0.828,3.374,2.941