File: Li-ion_Batteries/CALCE_CX2-36_prism_LCO_25C_0-100_0.5-0.5C_f_cycle_data.csv
Cycle_Index,Start_Time,End_Time,Test_Time (s),Min_Current (A),Max_Current (A),Min_Voltage (V),Max_Voltage (V),Charge_Capacity (Ah),Discharge_Capacity (Ah),Charge_Energy (Wh),Discharge_Energy (Wh)
1.0,,,13640.301,-1.35,1.186,2.699,4.2,1.38,1.355,5.54,4.838
15.0,,,199145.034,-1.35,1.176,2.699,4.2,1.328,1.323,5.31,4.742
29.0,,,381286.917,-1.35,1.156,2.699,4.199,1.326,1.324,5.292,4.779
43.0,,,561435.591,-1.349,1.163,2.699,4.2,1.299,1.295,5.199,4.646
57.0,,,738311.526,-1.35,1.167,2.699,4.199,1.335,1.33,5.328,4.798
71.0,,,919626.864,-1.35,1.172,2.699,4.199,1.284,1.278,5.146,4.564
85.0,,,1098690.242,-1.351,1.16,2.699,4.199,1.269,1.266,5.087,4.531
99.0,,,1263605.201,-1.35,1.153,2.699,4.199,1.266,1.265,5.07,4.545
113.0,,,1440015.24,-1.35,1.155,2.699,4.199,1.25,1.25,5.008,4.489
127.0,,,1614858.222,-1.35,1.145,2.699,4.199,1.255,1.254,5.017,4.519
141.0,,,1788711.077,-1.35,1.14,2.699,4.199,1.242,1.243,4.969,4.476
155.0,,,1963947.043,-1.349,1.146,2.699,4.199,1.248,1.247,4.993,4.487
169.0,,,2137718.171,-1.35,1.143,2.699,4.199,1.244,1.241,4.973,4.473
183.0,,,2310297.744,-1.35,1.143,2.699,4.199,1.23,1.23,4.924,4.431
197.0,,,2482487.948,-1.35,1.154,2.699,4.199,1.232,1.24,4.944,4.46
211.0,,,2655856.057,-1.35,1.13,2.699,4.199,1.243,1.24,4.966,4.477
225.0,,,2827848.613,-1.35,1.154,2.699,4.199,1.21,1.22,4.851,4.393
239.0,,,2994631.209,-1.35,1.151,2.699,4.199,1.196,1.195,4.797,4.272
253.0,,,3154432.096,-1.35,1.156,2.699,4.199,1.221,1.204,4.895,4.291
267.0,,,3313917.134,-1.35,1.156,2.699,4.199,1.191,1.194,4.782,4.267
281.0,,,3479922.01,-1.349,1.139,2.699,4.199,1.2,1.198,4.807,4.308
295.0,,,3645321.124,-1.351,1.146,2.699,4.199,1.176,1.17,4.723,4.177
309.0,,,3814081.835,-1.349,1.166,2.699,4.199,1.182,1.191,4.754,4.261
323.0,,,3979793.339,-1.351,1.137,2.699,4.199,1.191,1.186,4.772,4.255
337.0,,,4147729.429,-1.35,1.15,2.699,4.199,1.157,1.153,4.651,4.104
351.0,,,4310942.156,-1.349,1.146,2.699,4.2,1.149,1.145,4.621,4.073
365.0,,,4473698.834,-1.349,1.164,2.699,4.199,1.144,1.141,4.603,4.058
379.0,,,4640165.155,-1.35,1.134,2.699,4.199,1.165,1.165,4.669,4.181
393.0,,,4805811.275,-1.35,1.156,2.699,4.199,1.136,1.139,4.57,4.058
407.0,,,4971664.411,-1.351,1.151,2.699,4.199,1.133,1.137,4.575,4.043
421.0,,,5133824.319,-1.351,1.145,2.699,4.199,1.153,1.149,4.627,4.111
435.0,,,5288618.89,-1.351,1.134,2.699,4.199,1.161,1.149,4.653,4.108
449.0,,,5450279.921,-1.351,1.133,2.699,4.199,1.154,1.154,4.628,4.14
463.0,,,5615447.672,-1.35,1.129,2.699,4.199,1.161,1.161,4.648,4.172
477.0,,,5776991.296,-1.35,1.135,2.699,4.199,1.153,1.155,4.625,4.143
491.0,,,5941717.088,-1.35,1.144,2.699,4.199,1.14,1.146,4.576,4.111
505.0,,,6105887.98,-1.351,1.138,2.699,4.199,1.133,1.131,4.549,4.044
519.0,,,6270240.089,-1.351,1.13,2.699,4.199,1.149,1.148,4.602,4.127
533.0,,,6430882.202,-1.35,1.152,2.699,4.199,1.133,1.13,4.55,4.039
547.0,,,6594474.809,-1.351,1.144,2.699,4.199,1.124,1.114,4.513,3.971
561.0,,,6757260.909,-1.35,1.137,2.699,4.199,1.13,1.132,4.534,4.063
575.0,,,6913383.948,-1.35,1.158,2.699,4.199,1.112,1.105,4.477,3.923
589.0,,,7068978.385,0.0,0.676,3.409,4.118,0.746,0.0,2.952,0.0
603.0,,,7226841.35,-1.349,1.14,2.699,4.2,1.111,1.096,4.463,3.897
617.0,,,7384158.072,-1.35,1.151,2.699,4.199,1.105,1.104,4.44,3.941
631.0,,,7545519.213,-1.35,1.155,2.699,4.199,1.112,1.11,4.463,3.975
645.0,,,7708226.968,-1.35,1.169,2.699,4.199,1.108,1.089,4.454,3.867
659.0,,,7869140.924,-1.35,1.148,2.699,4.199,1.1,1.097,4.421,3.917
673.0,,,8029104.551,-1.349,1.146,2.699,4.199,1.085,1.086,4.367,3.871
687.0,,,8185497.039,-1.35,1.142,2.699,4.199,1.095,1.093,4.4,3.909
701.0,,,8346634.201,-1.351,1.148,2.699,4.199,1.085,1.083,4.365,3.858
715.0,,,8501657.174,-1.35,1.154,2.699,4.199,1.072,1.067,4.32,3.796
729.0,,,8660770.815,-1.35,1.149,2.699,4.199,1.085,1.083,4.36,3.871
743.0,,,8817121.137,-1.351,1.148,2.699,4.199,1.093,1.093,4.393,3.905
757.0,,,8976438.703,-1.351,1.152,2.699,4.199,1.073,1.078,4.317,3.844
771.0,,,9131985.943,-1.35,1.179,2.699,4.199,1.048,1.045,4.227,3.703
785.0,,,9289082.043,-1.351,1.169,2.699,4.2,1.033,1.031,4.174,3.64
799.0,,,9445327.41,-1.349,1.161,2.699,4.199,1.035,1.033,4.177,3.66
813.0,,,9601328.037,-1.35,1.148,2.699,4.199,1.023,1.042,4.146,3.706
827.0,,,9758072.789,-1.35,1.168,2.699,4.199,1.039,1.037,4.19,3.68
841.0,,,9913675.724,-1.35,1.17,2.699,4.2,1.012,1.006,4.09,3.549
855.0,,,10067953.85,-1.35,1.176,2.699,4.199,1.0,0.998,4.045,3.517
869.0,,,10218663.95,-1.35,1.164,2.699,4.199,1.018,1.004,4.117,3.542
883.0,,,10368847.72,-1.349,1.171,2.699,4.199,0.986,0.985,3.992,3.464
897.0,,,10522042.57,-1.35,1.184,2.699,4.199,0.999,0.998,4.039,3.526
911.0,,,10675941.811,-1.35,1.169,2.699,4.2,0.982,0.978,3.973,3.442
925.0,,,10829377.85,-1.349,1.171,2.699,4.199,0.978,0.972,3.96,3.412
939.0,,,10966828.498,-1.35,1.174,2.699,4.2,0.98,0.978,3.969,3.44
953.0,,,11120259.789,-1.35,1.171,2.699,4.199,0.973,0.97,3.94,3.405
967.0,,,11273012.514,-1.349,1.178,2.699,4.199,0.959,0.957,3.885,3.357
981.0,,,11420413.778,-1.35,1.171,2.699,4.2,0.95,0.956,3.852,3.354
995.0,,,11575010.411,-1.35,1.176,2.699,4.2,0.966,0.962,3.915,3.369
1009.0,,,11714307.027,-1.349,1.178,2.699,4.2,0.961,0.955,3.896,3.347
1023.0,,,11866827.583,-1.349,1.175,2.699,4.2,0.948,0.944,3.845,3.309
1037.0,,,12014942.24,-1.35,1.176,2.699,4.2,0.956,0.952,3.875,3.341
1051.0,,,12166646.679,-1.35,1.175,2.699,4.2,0.937,0.936,3.804,3.272
1065.0,,,12317334.686,-1.349,1.173,2.699,4.2,0.932,0.93,3.78,3.254
1079.0,,,12467559.281,-1.349,1.175,2.699,4.199,0.926,0.922,3.757,3.225
1093.0,,,12619047.002,-1.35,1.197,2.699,4.199,0.924,0.921,3.751,3.216
1107.0,,,12769670.621,-1.35,1.198,2.699,4.2,0.927,0.923,3.762,3.232
1121.0,,,12918843.832,-1.35,1.186,2.699,4.199,0.917,0.915,3.719,3.202
1135.0,,,13068716.156,-1.35,1.206,2.699,4.2,0.932,0.915,3.78,3.198
1149.0,,,13218745.354,-1.349,1.189,2.699,4.2,0.919,0.916,3.729,3.2
1163.0,,,13368639.944,-1.35,1.192,2.699,4.199,0.907,0.905,3.684,3.16
1177.0,,,13517519.292,-1.35,1.183,2.699,4.199,0.895,0.882,3.635,3.069
1191.0,,,13666636.415,-1.349,1.189,2.699,4.199,0.892,0.894,3.624,3.119
1205.0,,,13813835.799,-1.35,1.184,2.699,4.199,0.876,0.878,3.563,3.059
1219.0,,,13961065.329,-1.35,1.187,2.699,4.199,0.902,0.902,3.658,3.15
1233.0,,,14106455.726,-1.35,1.18,2.699,4.199,0.916,0.908,3.714,3.179
1247.0,,,14256474.694,-1.35,1.192,2.699,4.199,0.892,0.89,3.623,3.096
1261.0,,,14404843.33,-1.349,1.183,2.699,4.199,0.874,0.873,3.552,3.034
1275.0,,,14551640.858,-1.35,1.193,2.699,4.2,0.868,0.866,3.527,3.009
1289.0,,,14694717.096,-1.35,1.173,2.699,4.199,0.888,0.885,3.606,3.081
1303.0,,,14843107.233,-1.35,1.185,2.699,4.199,0.881,0.875,3.577,3.044
1317.0,,,14984975.189,-1.349,1.18,2.699,4.199,0.866,0.864,3.516,3.004
1331.0,,,15130426.865,-1.35,1.174,2.699,4.199,0.858,0.855,3.485,2.974
1345.0,,,15279486.35,-1.35,1.185,2.699,4.199,0.867,0.866,3.521,3.013
1359.0,,,15411217.71,-1.35,1.145,2.699,4.199,0.444,0.895,1.846,3.13
1373.0,,,15559272.98,-1.35,1.197,2.699,4.199,0.873,0.87,3.545,3.029
1387.0,,,15701173.024,-1.349,1.185,2.699,4.199,0.859,0.856,3.489,2.977
1401.0,,,15841299.195,-1.35,0.676,2.699,4.197,0.603,0.618,2.417,2.124
1415.0,,,15984007.086,-1.35,1.201,2.699,4.199,0.871,0.869,3.536,3.023
1429.0,,,16120559.51,-1.35,1.205,2.699,4.199,0.88,0.875,3.569,3.039
1443.0,,,16265711.78,-1.349,1.188,2.699,4.199,0.842,0.84,3.424,2.914
1457.0,,,16405428.051,-1.35,1.185,2.699,4.199,0.839,0.834,3.409,2.892
1471.0,,,16549748.881,-1.35,1.194,2.699,4.199,0.833,0.834,3.387,2.89
1485.0,,,16695811.219,-1.35,1.188,2.699,4.199,0.831,0.829,3.382,2.87
1499.0,,,16839444.822,-1.35,1.21,2.699,4.199,0.814,0.811,3.315,2.804
1513.0,,,16982708.998,-1.35,1.217,2.699,4.199,0.82,0.819,3.334,2.836
1527.0,,,17125779.298,-1.35,1.192,2.699,4.199,0.813,0.81,3.308,2.801
1541.0,,,17269586.312,-1.35,1.194,2.699,4.2,0.799,0.798,3.252,2.752
1555.0,,,17410858.126,-1.35,1.191,2.699,4.2,0.796,0.793,3.242,2.736
1569.0,,,17552094.885,-1.35,1.202,2.699,4.199,0.8,0.799,3.255,2.762
1583.0,,,17698484.469,-1.349,1.207,2.699,4.199,0.855,0.854,3.473,2.965
1597.0,,,17841184.991,-1.35,1.191,2.699,4.199,0.866,0.865,3.514,3.01
1611.0,,,17992549.816,-1.35,1.217,2.699,4.199,0.824,0.82,3.353,2.833
1625.0,,,18122641.043,-1.35,1.194,2.699,4.199,0.825,0.833,3.353,2.881
1639.0,,,18273372.552,-1.35,1.197,2.699,4.199,0.864,0.863,3.504,3.001
1653.0,,,18410341.944,-1.349,1.195,2.699,4.199,0.821,0.8,3.337,2.759
1667.0,,,18548060.511,-1.35,1.221,2.699,4.199,0.769,0.769,3.134,2.645
1681.0,,,18690452.906,-1.35,1.211,2.699,4.199,0.763,0.759,3.113,2.603
1695.0,,,18835201.862,-1.35,1.189,2.699,4.199,0.817,0.817,3.321,2.821
1709.0,,,18981774.156,-1.349,1.181,2.699,4.199,0.759,0.775,3.096,2.66
1723.0,,,19118292.76,-1.35,1.188,2.699,4.199,0.747,0.744,3.05,2.546
1737.0,,,19258167.23,-1.35,1.187,2.699,4.199,0.76,0.762,3.1,2.61
1751.0,,,19404457.596,-1.349,1.183,2.699,4.2,0.748,0.765,3.057,2.615
1765.0,,,19545194.349,-1.35,1.181,2.699,4.199,0.708,0.705,2.897,2.395
1779.0,,,19676081.555,-1.35,1.186,2.699,4.199,0.719,0.723,2.938,2.465
1793.0,,,19805223.221,-1.35,1.194,2.699,4.199,0.717,0.717,2.93,2.442
1807.0,,,19943067.688,-1.35,1.184,2.699,4.2,0.676,0.673,2.77,2.279
1821.0,,,20062729.386,-1.349,1.202,3.599,4.199,0.674,0.124,2.766,0.466
1835.0,,,20192428.748,-1.35,1.176,2.699,4.199,0.682,0.684,2.793,2.319
1849.0,,,20319860.689,-1.35,1.172,2.699,4.199,0.615,0.611,2.524,2.06
1863.0,,,20442700.641,-1.35,1.167,2.699,4.199,0.628,0.632,2.576,2.136
1877.0,,,20574083.22,-1.349,1.168,2.699,4.199,0.678,0.677,2.776,2.294
1891.0,,,20702051.418,-1.349,1.178,2.699,4.199,0.63,0.623,2.583,2.099
1905.0,,,20820848.938,-1.35,1.176,2.699,4.199,0.671,0.667,2.747,2.26
1919.0,,,20951902.223,-1.35,1.182,2.699,4.199,0.605,0.601,2.485,2.021
1933.0,,,21068744.936,-1.351,1.159,2.699,4.199,0.574,0.561,2.359,1.878
1947.0,,,21187366.75,-1.35,1.183,2.699,4.199,0.607,0.608,2.489,2.046
1961.0,,,21313444.326,-1.35,1.19,2.699,4.199,0.631,0.63,2.586,2.122
1971.0,,,21400171.829,-1.35,1.197,2.699,4.199,0.548,0.541,2.254,1.808