File: Li-ion_Batteries/CALCE_CX2-25_prism_LCO_25C_0-100_0.5-0.5C_b_cycle_data.csv
Cycle_Index,Start_Time,End_Time,Test_Time (s),Min_Current (A),Max_Current (A),Min_Voltage (V),Max_Voltage (V),Charge_Capacity (Ah),Discharge_Capacity (Ah),Charge_Energy (Wh),Discharge_Energy (Wh)
1.0,,,17206.108,-0.675,1.19,2.699,4.2,1.367,1.363,5.49,5.039
14.0,,,237887.832,-0.674,1.178,2.699,4.2,1.346,1.343,5.379,4.978
27.0,,,455717.25,-0.675,1.157,2.699,4.2,1.343,1.343,5.351,5.0
40.0,,,664203.537,-0.674,1.171,2.699,4.2,1.326,1.325,5.299,4.915
53.0,,,879714.735,-0.675,1.153,2.699,4.199,1.325,1.324,5.287,4.92
66.0,,,1097307.387,-0.675,1.177,2.699,4.2,1.318,1.318,5.277,4.879
79.0,,,1308471.705,-0.674,1.164,2.699,4.199,1.311,1.308,5.248,4.845
92.0,,,1490734.128,0.0,0.675,3.104,4.132,0.976,0.0,3.847,0.0
105.0,,,1694356.212,-0.674,1.153,2.699,4.2,1.295,1.298,5.186,4.816
118.0,,,1906512.184,-0.674,1.144,2.699,4.2,1.3,1.302,5.19,4.842
131.0,,,2113933.24,-0.674,1.156,2.699,4.2,1.288,1.286,5.155,4.764
144.0,,,2316842.805,-0.675,1.151,2.699,4.199,1.313,1.31,5.24,4.873
157.0,,,2520196.282,-0.674,1.144,2.699,4.2,1.3,1.298,5.182,4.834
170.0,,,2726423.249,-0.675,1.159,2.699,4.2,1.28,1.279,5.122,4.741
183.0,,,2925050.238,-0.674,1.159,2.699,4.2,0.981,1.269,3.991,4.695
196.0,,,3134270.279,-0.674,1.146,2.699,4.2,1.278,1.277,5.102,4.747
209.0,,,3343059.8,-0.674,1.155,2.699,4.199,1.255,1.255,5.032,4.645
222.0,,,3550999.798,-0.674,1.151,2.699,4.2,1.249,1.256,5.006,4.658
235.0,,,3758748.348,-0.674,1.159,2.699,4.2,1.269,1.271,5.082,4.715
248.0,,,3962493.509,-0.674,1.166,2.699,4.2,1.248,1.246,5.006,4.607
261.0,,,4169383.529,-0.675,1.147,2.699,4.2,1.251,1.251,5.006,4.642
274.0,,,4370608.95,-0.675,1.15,2.699,4.2,1.245,1.245,4.986,4.621
287.0,,,4572748.542,-0.674,0.675,2.699,4.199,1.019,1.022,4.049,3.729
300.0,,,4763859.775,-0.675,1.153,2.699,4.2,1.244,1.244,4.987,4.611
313.0,,,4965124.952,-0.675,1.153,2.699,4.199,1.238,1.237,4.959,4.585
326.0,,,5169637.72,-0.675,1.14,2.699,4.2,1.243,1.246,4.966,4.632
339.0,,,5373595.115,-0.675,1.154,2.699,4.2,1.233,1.234,4.936,4.58
352.0,,,5577315.29,-0.675,1.159,2.699,4.2,1.23,1.234,4.925,4.586
365.0,,,5776387.427,-0.675,1.137,2.699,4.2,1.236,1.238,4.937,4.604
378.0,,,5979153.417,-0.675,1.141,2.699,4.2,1.226,1.228,4.908,4.559
391.0,,,6181652.681,-0.674,1.162,2.699,4.2,1.216,1.221,4.874,4.533
404.0,,,6385966.797,-0.675,1.152,2.699,4.2,1.235,1.236,4.944,4.588
417.0,,,6568606.176,-0.675,1.152,2.699,4.2,1.217,1.218,4.879,4.516
430.0,,,6770256.02,-0.675,1.156,2.699,4.2,1.205,1.206,4.831,4.466
443.0,,,6971300.252,-0.675,1.142,2.699,4.2,1.214,1.214,4.86,4.509
456.0,,,7171900.431,-0.675,1.161,2.699,4.2,1.202,1.206,4.818,4.476
469.0,,,7373130.195,-0.675,1.159,2.699,4.2,1.198,1.197,4.806,4.434
482.0,,,7568973.108,-0.674,1.148,2.699,4.2,1.207,1.207,4.831,4.482
495.0,,,7768571.681,-0.675,1.162,2.699,4.2,1.193,1.191,4.784,4.414
508.0,,,7968145.587,-0.675,1.145,2.699,4.2,1.181,1.217,4.758,4.513
521.0,,,8169782.881,-0.675,1.156,2.699,4.2,1.208,1.212,4.838,4.504
534.0,,,8360837.177,-0.674,1.151,2.699,4.2,1.193,1.194,4.783,4.427
547.0,,,8559723.367,-0.675,1.178,2.699,4.2,1.167,1.165,4.698,4.296
560.0,,,8758016.414,-0.675,1.166,2.699,4.2,1.179,1.177,4.73,4.359
573.0,,,8951429.113,-0.674,1.166,2.699,4.2,1.181,1.175,4.738,4.354
586.0,,,9150071.728,-0.675,1.173,2.699,4.2,1.167,1.164,4.692,4.299
599.0,,,9347560.743,-0.675,1.161,2.699,4.2,1.159,1.156,4.662,4.267
612.0,,,9544326.372,-0.674,1.158,2.699,4.2,1.153,1.152,4.639,4.25
625.0,,,9736226.848,-0.675,1.158,2.699,4.2,1.132,1.163,4.582,4.291
638.0,,,9934369.12,-0.674,1.166,2.699,4.2,1.155,1.153,4.647,4.253
651.0,,,10127500.833,-0.675,1.166,2.699,4.2,1.143,1.139,4.601,4.196
664.0,,,10312997.395,-0.674,0.675,2.699,4.198,0.896,0.903,3.572,3.275
677.0,,,10507860.34,-0.675,1.187,2.699,4.2,1.123,1.122,4.532,4.124
690.0,,,10701795.269,-0.675,1.169,2.699,4.2,1.12,1.119,4.517,4.117
703.0,,,10887282.015,-0.675,1.183,2.699,4.199,1.128,1.122,4.55,4.126
716.0,,,11076585.957,-0.675,1.168,2.699,4.2,1.121,1.118,4.52,4.114
729.0,,,11269812.337,-0.675,1.201,2.699,4.2,1.114,1.113,4.497,4.095
742.0,,,11462380.447,-0.674,1.165,2.699,4.2,1.116,1.113,4.496,4.097
755.0,,,11656865.809,-0.674,1.185,2.699,4.2,1.112,1.111,4.487,4.086
768.0,,,11843687.741,-0.674,1.207,2.699,4.199,1.106,1.104,4.465,4.058
781.0,,,12035674.823,-0.674,1.182,2.699,4.2,1.104,1.101,4.453,4.048
794.0,,,12226891.987,-0.674,1.179,2.699,4.2,1.095,1.09,4.421,3.999
807.0,,,12417407.252,-0.675,1.175,2.699,4.199,1.086,1.086,4.386,3.986
820.0,,,12599010.427,-0.675,1.182,2.699,4.2,1.098,1.095,4.435,4.022
833.0,,,12789801.428,-0.675,1.192,2.699,4.2,1.088,1.088,4.39,3.995
846.0,,,12974395.848,-0.675,0.675,2.699,4.198,0.839,0.848,3.352,3.07
859.0,,,13163684.636,-0.675,1.213,2.699,4.2,1.072,1.068,4.335,3.914
872.0,,,13354937.735,-0.674,1.174,2.699,4.2,1.093,1.09,4.41,4.006
885.0,,,13545171.392,-0.674,1.189,2.699,4.2,1.081,1.077,4.366,3.952
898.0,,,13729420.119,-0.675,1.184,2.699,4.2,1.072,1.072,4.333,3.933
911.0,,,13917959.173,-0.675,1.18,2.699,4.2,1.07,1.069,4.323,3.923
924.0,,,14108762.926,-0.675,1.176,2.699,4.2,1.083,1.083,4.369,3.98
937.0,,,14297858.234,-0.675,1.183,2.699,4.2,1.07,1.069,4.319,3.922
950.0,,,14486226.103,-0.675,1.171,2.699,4.2,1.068,1.066,4.312,3.911
963.0,,,14674313.341,-0.675,1.181,2.699,4.199,1.048,1.072,4.254,3.931
976.0,,,14856745.432,-0.675,1.179,2.699,4.2,1.069,1.068,4.315,3.922
989.0,,,15039363.063,-0.675,1.173,2.699,4.199,1.059,1.059,4.275,3.885
1002.0,,,15226209.532,-0.675,1.178,2.699,4.199,1.054,1.051,4.257,3.853
1015.0,,,15412375.985,-0.675,1.196,2.699,4.199,1.045,1.045,4.221,3.829
1028.0,,,15599597.675,-0.675,1.182,2.699,4.199,1.043,1.04,4.217,3.805
1041.0,,,15785171.813,-0.675,1.182,2.699,4.2,1.032,1.032,4.175,3.775
1054.0,,,15964822.22,-0.675,1.183,2.699,4.2,1.027,1.026,4.155,3.749
1067.0,,,16148926.494,-0.675,1.205,2.699,4.2,1.023,1.02,4.137,3.725
1080.0,,,16329351.925,-0.675,1.175,2.699,4.2,1.027,1.029,4.154,3.76
1093.0,,,16484017.809,-0.675,1.182,2.699,4.2,1.037,1.022,4.191,3.74
1106.0,,,16667714.258,-0.675,1.194,2.699,4.2,1.013,1.014,4.098,3.706
1119.0,,,16850942.346,-0.675,1.182,2.699,4.199,1.009,1.007,4.082,3.675
1132.0,,,17033377.035,-0.675,1.193,2.699,4.199,1.0,0.998,4.048,3.639
1145.0,,,17216719.32,-0.675,1.184,2.699,4.199,1.013,1.01,4.098,3.684
1158.0,,,17394136.317,-0.675,0.675,2.699,4.198,0.755,0.766,3.015,2.759
1171.0,,,17576462.977,-0.675,1.192,2.699,4.2,0.988,0.987,4.001,3.596
1184.0,,,17757233.964,-0.675,1.22,2.699,4.2,0.983,0.983,3.98,3.58
1197.0,,,17939675.19,-0.675,1.186,2.699,4.2,1.012,1.004,4.088,3.667
1210.0,,,18123906.363,-0.675,1.179,2.699,4.2,1.04,1.04,4.191,3.817
1223.0,,,18294376.614,-0.675,1.165,2.699,4.2,1.035,1.029,4.172,3.773
1236.0,,,18464610.847,-0.675,1.159,2.699,4.2,1.036,1.04,4.175,3.815
1249.0,,,18644053.961,-0.675,1.188,2.699,4.2,1.0,1.0,4.04,3.654
1262.0,,,18815160.874,-0.675,0.675,2.699,4.198,0.749,0.762,2.992,2.746
1275.0,,,18996797.257,-0.675,1.167,2.699,4.2,1.009,1.011,4.074,3.703
1288.0,,,19171377.558,-0.675,1.082,2.699,4.2,0.276,1.0,1.157,3.65
1301.0,,,19352429.777,-0.675,1.177,2.699,4.2,0.982,0.983,3.97,3.589
1314.0,,,19532559.249,-0.675,1.189,2.699,4.2,0.981,0.974,3.968,3.551
1327.0,,,19714279.298,-0.675,1.171,2.699,4.2,1.006,1.006,4.058,3.688
1340.0,,,19895521.73,-0.675,1.192,2.699,4.2,0.992,0.988,4.009,3.617
1353.0,,,20070731.878,-0.674,1.184,3.223,4.2,0.98,0.061,3.964,0.248
1366.0,,,20243243.924,-0.675,1.182,2.699,4.2,0.973,0.971,3.933,3.546
1379.0,,,20420662.369,-0.675,1.188,2.699,4.2,0.955,0.954,3.868,3.479
1392.0,,,20594060.194,-0.675,1.19,2.699,4.2,0.986,0.986,3.983,3.608
1405.0,,,20772969.766,-0.674,1.183,2.699,4.2,0.983,0.972,3.976,3.545
1418.0,,,20946698.474,-0.674,1.194,2.699,4.2,0.961,0.954,3.89,3.476
1431.0,,,21121057.433,-0.675,1.194,2.699,4.2,0.99,0.991,3.994,3.625
1444.0,,,21293407.404,-0.675,1.197,2.699,4.2,0.944,0.94,3.826,3.421
1457.0,,,21465352.681,-0.675,0.675,2.699,4.196,0.728,0.746,2.904,2.692
1470.0,,,21639732.46,-0.675,1.159,2.699,4.199,0.655,0.948,2.696,3.464
1483.0,,,21815901.225,-0.675,1.183,2.699,4.2,0.937,0.939,3.797,3.42
1496.0,,,21991241.969,-0.675,1.179,2.699,4.199,0.947,0.949,3.835,3.46
1509.0,,,22168016.286,-0.675,1.19,2.699,4.199,0.924,0.921,3.749,3.341
1522.0,,,22342728.899,-0.675,1.223,2.699,4.2,0.909,0.896,3.693,3.248
1535.0,,,22501737.591,-0.675,1.185,2.699,4.2,0.912,0.899,3.7,3.258
1548.0,,,22673154.8,-0.675,1.202,2.699,4.199,0.903,0.907,3.667,3.291
1561.0,,,22846793.727,-0.675,1.198,2.699,4.2,0.913,0.893,3.7,3.235
1574.0,,,23016177.331,-0.675,1.195,2.699,4.199,0.883,0.871,3.585,3.15
1587.0,,,23185268.524,-0.675,1.212,2.699,4.199,0.836,0.831,3.413,2.987
1600.0,,,23353645.069,-0.675,1.222,2.699,4.2,0.886,0.888,3.599,3.22
1613.0,,,23520539.313,-0.675,1.216,2.699,4.2,0.838,0.838,3.418,3.022
1626.0,,,23668563.605,-0.675,1.219,2.699,4.199,0.858,0.861,3.492,3.116
1639.0,,,23827911.93,-0.675,0.675,2.699,4.196,0.604,0.628,2.42,2.244
1652.0,,,23994625.021,-0.675,1.22,2.699,4.2,0.826,0.84,3.372,3.032
1665.0,,,24150351.745,-0.674,1.235,2.699,4.2,0.801,0.796,3.272,2.86
1678.0,,,24309525.899,-0.675,1.221,2.699,4.2,0.762,0.751,3.12,2.682
1691.0,,,24462778.403,-0.674,1.235,2.699,4.2,0.76,0.767,3.109,2.749
1704.0,,,24614676.087,-0.675,1.216,2.699,4.2,0.798,0.799,3.254,2.877
1717.0,,,24766152.016,-0.675,1.222,2.699,4.199,0.716,0.693,2.935,2.466
1730.0,,,24910545.739,-0.675,1.217,2.699,4.2,0.676,0.673,2.777,2.39
1743.0,,,25040039.828,-0.674,0.675,2.699,4.198,0.366,0.397,1.485,1.384
1756.0,,,25179026.544,-0.674,1.197,2.699,4.2,0.631,0.627,2.599,2.216
1769.0,,,25309115.209,-0.675,0.675,2.699,4.195,0.323,0.357,1.31,1.237
1782.0,,,25437348.042,-0.675,1.262,2.699,4.2,0.561,0.561,2.318,1.971
1795.0,,,25563482.579,-0.675,1.215,2.699,4.2,0.577,0.569,2.378,2.004
1808.0,,,25691358.429,-0.675,1.209,2.699,4.2,0.573,0.572,2.367,2.016
1815.0,,,25760314.152,-0.675,1.213,2.699,4.2,0.559,0.555,2.308,1.95