File: Li-ion_Batteries/UL-PUR_N10-OV8_18650_NCA_23C_0-100_0.5-0.5C_h_cycle_data.csv
Cycle_Index,Test_Time (s),Min_Current (A),Max_Current (A),Min_Voltage (V),Max_Voltage (V),Charge_Capacity (Ah),Discharge_Capacity (Ah),Charge_Energy (Wh),Discharge_Energy (Wh)
1.0,18030.038,-1.133,1.134,2.7,4.2,0.819,3.302,3.389,11.674
3.0,69910.75,-1.133,1.134,2.7,4.2,3.307,3.299,12.655,11.652
5.0,121808.572,-1.133,1.134,2.7,4.2,3.307,3.3,12.652,11.662
7.0,173761.306,-1.133,1.134,2.7,4.2,3.307,3.3,12.654,11.66
9.0,220557.94,-1.133,1.134,2.7,4.2,2.928,2.925,11.068,10.183
11.0,267280.482,-1.133,1.134,2.7,4.2,3.304,3.297,12.646,11.645
13.0,319578.977,-1.133,1.134,2.7,4.2,3.303,3.297,12.645,11.639
15.0,372036.774,-1.133,1.134,2.7,4.2,3.301,3.293,12.641,11.616
17.0,424912.768,-1.133,1.134,2.7,4.2,3.298,3.29,12.633,11.598
19.0,477457.318,-1.133,1.134,2.7,4.2,3.298,3.293,12.631,11.62
21.0,529987.223,-1.133,1.134,2.7,4.2,3.298,3.291,12.628,11.608
23.0,576983.667,-1.133,1.135,2.7,4.2,3.298,3.29,12.626,11.601
25.0,629560.418,-1.133,1.134,2.7,4.2,3.296,3.29,12.622,11.6
27.0,682255.819,-1.133,1.134,2.7,4.2,3.295,3.286,12.617,11.576
29.0,735521.686,-1.133,1.134,2.7,4.2,3.291,3.284,12.61,11.561
31.0,788924.032,-1.133,1.134,2.7,4.2,3.29,3.281,12.609,11.54
33.0,842463.65,-1.133,1.134,2.7,4.2,3.286,3.28,12.598,11.529
35.0,896244.072,-1.133,1.134,2.7,4.2,3.285,3.278,12.596,11.518
37.0,950006.132,-1.133,1.134,2.7,4.2,3.283,3.276,12.588,11.512
39.0,1003694.556,-1.133,1.134,2.7,4.2,3.283,3.276,12.585,11.515
41.0,1054407.012,-1.6,1.134,2.7,4.2,3.28,3.273,12.579,11.349
43.0,1096698.735,-1.6,1.601,2.7,4.2,3.278,3.272,12.694,11.339
45.0,1139329.879,-1.6,1.601,2.7,4.2,3.274,3.268,12.682,11.317
47.0,1179357.047,-1.6,1.601,2.7,4.2,3.267,3.014,12.661,10.62
49.0,1215891.041,-1.6,1.601,2.7,4.201,3.025,3.008,11.782,10.591
51.0,1252493.477,-1.6,1.601,2.7,4.2,3.021,3.012,11.773,10.596
53.0,1289295.356,-1.6,1.601,2.7,4.2,3.017,3.015,11.76,10.606
55.0,1326078.651,-1.6,1.601,2.7,4.2,3.016,2.997,11.761,10.535
57.0,1362927.987,-1.6,1.601,2.7,4.2,3.012,3.003,11.744,10.551
59.0,1399827.845,-1.6,1.601,2.7,4.2,3.002,3.004,11.712,10.546
61.0,1436854.308,-1.6,1.601,2.7,4.2,3.005,3.002,11.724,10.535
63.0,1473780.929,-1.6,1.601,2.7,4.2,3.003,2.997,11.717,10.516
65.0,1510834.548,-1.6,1.601,2.7,4.2,2.993,2.997,11.681,10.51
67.0,1547917.366,-1.6,1.601,2.7,4.2,2.997,2.987,11.695,10.479
69.0,1585027.476,-1.6,1.601,2.7,4.2,2.984,2.982,11.654,10.456
71.0,1622320.959,-1.6,1.601,2.7,4.2,2.995,2.992,11.694,10.482
73.0,1659483.699,-1.6,1.601,2.7,4.2,2.985,2.978,11.655,10.436
75.0,1696759.077,-1.6,1.601,2.7,4.2,2.989,2.976,11.675,10.427
77.0,1734047.008,-1.6,1.601,2.7,4.2,2.985,2.996,11.661,10.502
79.0,1771268.933,-1.6,1.601,2.696,4.201,3.004,2.999,11.723,10.51
81.0,1808561.134,-1.6,1.601,2.7,4.201,3.002,2.996,11.715,10.497
83.0,1845844.485,-1.6,1.601,2.7,4.201,2.999,2.969,11.707,10.414
85.0,1883718.925,-1.6,1.601,2.7,4.2,2.913,2.898,11.43,10.098
87.0,1921781.415,-1.6,1.601,2.7,4.2,2.942,2.951,11.521,10.312
89.0,1959407.656,-1.6,1.601,2.7,4.2,2.961,2.957,11.585,10.337
91.0,1997037.283,-1.6,1.601,2.7,4.2,2.946,2.936,11.535,10.25
93.0,2034846.708,-1.6,1.601,2.7,4.2,2.942,2.928,11.521,10.217
95.0,2072788.055,-1.6,1.601,2.7,4.2,2.926,2.952,11.469,10.283
97.0,2110666.642,-1.6,1.601,2.7,4.2,2.942,2.932,11.524,10.232
99.0,2140685.555,-1.6,1.601,2.7,4.2,2.936,2.94,11.504,10.263
101.0,2170779.379,-1.6,1.601,2.7,4.2,2.353,2.348,9.049,8.033
103.0,2208627.687,-1.6,1.601,2.7,4.2,2.937,2.923,11.506,10.192
105.0,2246682.621,-1.6,1.601,2.7,4.2,2.929,2.91,11.483,10.138
107.0,2284724.228,-1.6,1.601,2.7,4.2,2.917,2.904,11.444,10.119
109.0,2322905.2,-1.6,1.601,2.7,4.2,2.9,2.888,11.386,10.045
111.0,2360943.002,-1.6,1.601,2.7,4.2,2.905,2.901,11.402,10.099
113.0,2399184.045,-1.6,1.601,2.699,4.2,2.9,2.889,11.385,10.047
115.0,2437399.135,-1.6,1.601,2.7,4.2,2.903,2.897,11.397,10.081
117.0,2475737.936,-1.6,1.601,2.7,4.2,2.899,2.896,11.384,10.082
119.0,2514045.739,-1.6,1.601,2.7,4.2,2.89,2.887,11.351,10.039
121.0,2552202.892,-1.6,1.601,2.7,4.2,2.897,2.883,11.375,10.024
123.0,2590554.319,-1.6,1.601,2.7,4.2,2.882,2.884,11.327,10.026
125.0,2620455.186,-1.6,1.601,2.7,4.2,2.259,2.262,8.716,7.702
127.0,2658975.797,-1.6,1.601,2.7,4.2,2.877,2.87,11.312,9.968
129.0,2697417.101,-1.6,1.601,2.7,4.2,2.869,2.852,11.284,9.898
131.0,2736000.315,-1.6,1.601,2.7,4.2,2.861,2.852,11.256,9.896
133.0,2774476.312,-1.6,1.601,2.7,4.2,2.858,2.85,11.248,9.891
135.0,2813151.997,-1.6,1.601,2.7,4.2,2.852,2.848,11.229,9.878
137.0,2851851.388,-1.6,1.601,2.7,4.2,2.853,2.846,11.233,9.874
139.0,2890532.211,-1.6,1.601,2.7,4.2,2.862,2.867,11.259,9.957
141.0,2929070.669,-1.6,1.601,2.7,4.2,2.851,2.844,11.225,9.86
143.0,2967881.077,-1.6,1.601,2.7,4.2,2.842,2.839,11.196,9.841
145.0,3006533.007,-1.6,1.601,2.7,4.2,2.842,2.837,11.19,9.833
147.0,3036516.579,-1.6,1.601,2.7,4.2,2.848,2.834,11.22,9.821
149.0,3075443.516,-1.6,1.601,2.7,4.2,2.834,2.828,11.167,9.8
151.0,3114279.303,-1.6,1.601,2.7,4.2,2.834,2.826,11.168,9.79
153.0,3153101.246,-1.6,1.601,2.7,4.2,2.827,2.824,11.143,9.782
155.0,3191869.906,-1.6,1.601,2.7,4.2,2.829,2.824,11.151,9.783
157.0,3230572.185,-1.6,1.601,2.7,4.2,2.828,2.82,11.147,9.767
159.0,3269348.966,-1.6,1.601,2.7,4.2,2.832,2.828,11.16,9.799
161.0,3307978.743,-1.6,1.601,2.7,4.2,2.826,2.817,11.137,9.751
163.0,3346791.261,-1.6,1.601,2.7,4.2,2.822,2.815,11.124,9.747
165.0,3385557.58,-1.6,1.601,2.7,4.2,2.819,2.809,11.115,9.721
167.0,3424344.888,-1.6,1.601,2.7,4.2,2.815,2.81,11.102,9.724
169.0,3463199.452,-1.6,1.601,2.7,4.2,2.816,2.804,11.104,9.702
171.0,3502029.007,-1.6,1.601,2.7,4.2,2.805,2.802,11.07,9.696
173.0,3540860.057,-1.6,1.601,2.7,4.2,2.806,2.801,11.07,9.69
175.0,3579777.9,-1.6,1.601,2.7,4.2,2.8,2.795,11.053,9.668
177.0,3618757.697,-1.6,1.601,2.7,4.2,2.801,2.795,11.053,9.671
179.0,3657661.201,-1.6,1.601,2.7,4.2,2.8,2.789,11.05,9.641
181.0,3687495.521,-1.6,1.601,2.7,4.2,2.808,2.788,11.084,9.651
183.0,3726458.395,-1.6,1.601,2.7,4.2,2.794,2.787,11.032,9.633
185.0,3765272.054,-1.6,1.601,2.7,4.2,2.789,2.784,11.014,9.623
187.0,3804235.948,-1.6,1.601,2.7,4.2,2.788,2.781,11.009,9.614
189.0,3843129.698,-1.6,1.601,2.7,4.2,2.785,2.772,10.999,9.574
191.0,3882183.62,-1.6,1.601,2.7,4.2,2.784,2.782,10.996,9.612
193.0,3921053.309,-1.6,1.601,2.7,4.2,2.78,2.772,10.981,9.58
195.0,3959954.389,-1.6,1.601,2.7,4.2,2.78,2.77,10.977,9.57
197.0,3998880.916,-1.6,1.601,2.7,4.2,2.779,2.77,10.975,9.571
199.0,4037769.996,-1.6,1.601,2.7,4.2,2.771,2.763,10.952,9.544
201.0,4076608.404,-1.6,1.601,2.7,4.2,2.77,2.766,10.945,9.554
202.0,4079897.764,1.6,1.601,3.393,3.972,1.462,0.0,5.529,0.0