File: Li-ion_Batteries/UL-PUR_N10-EX9_18650_NCA_23C_0-100_0.5-0.5C_i_cycle_data.csv
Cycle_Index,Test_Time (s),Min_Current (A),Max_Current (A),Min_Voltage (V),Max_Voltage (V),Charge_Capacity (Ah),Discharge_Capacity (Ah),Charge_Energy (Wh),Discharge_Energy (Wh)
1.0,21868.26,-1.133,1.133,2.7,4.201,2.038,3.306,8.107,11.678
3.0,74106.761,-1.133,1.133,2.7,4.2,3.309,3.302,12.66,11.651
5.0,125953.074,-1.134,1.134,2.7,4.201,3.309,3.305,12.654,11.674
7.0,178140.687,-1.134,1.134,2.7,4.201,3.309,3.304,12.658,11.659
9.0,230430.262,-1.134,1.133,2.7,4.201,3.305,3.302,12.647,11.651
11.0,282775.553,-1.134,1.133,2.7,4.201,3.305,3.3,12.644,11.638
13.0,335160.335,-1.134,1.134,2.7,4.201,3.304,3.299,12.641,11.627
15.0,387993.152,-1.133,1.133,2.7,4.201,3.301,3.294,12.633,11.595
17.0,440924.82,-1.134,1.133,2.7,4.2,3.299,3.294,12.631,11.598
19.0,493555.016,-1.134,1.133,2.7,4.201,3.301,3.296,12.632,11.615
21.0,546232.605,-1.134,1.133,2.7,4.201,3.299,3.294,12.628,11.602
23.0,598963.182,-1.134,1.133,2.7,4.201,3.298,3.293,12.622,11.596
25.0,651615.569,-1.134,1.134,2.7,4.201,3.299,3.294,12.622,11.604
27.0,704785.72,-1.134,1.133,2.7,4.201,3.294,3.288,12.611,11.557
29.0,758167.997,-1.134,1.133,2.7,4.201,3.29,3.287,12.602,11.555
31.0,811809.402,-1.133,1.134,2.7,4.201,3.289,3.285,12.603,11.539
33.0,865506.248,-1.133,1.133,2.7,4.201,3.289,3.284,12.6,11.532
35.0,919280.127,-1.133,1.134,2.7,4.201,3.287,3.281,12.596,11.515
37.0,973484.599,-1.134,1.133,2.7,4.201,3.286,3.281,12.595,11.512
39.0,1027526.27,-1.133,1.133,2.7,4.201,3.285,3.28,12.588,11.507
41.0,1073062.473,-1.6,1.6,2.7,4.201,3.284,3.28,12.707,11.362
43.0,1115424.397,-1.6,1.6,2.7,4.201,3.281,3.278,12.695,11.349
45.0,1158067.425,-1.6,1.6,2.7,4.201,3.277,3.273,12.687,11.32
47.0,1194980.016,-1.6,1.6,2.7,4.201,3.016,3.026,11.738,10.652
49.0,1231393.182,-1.6,1.6,2.7,4.201,3.016,3.008,11.741,10.586
51.0,1261487.681,-1.6,1.6,2.7,4.2,2.497,2.496,9.562,8.62
53.0,1297867.004,-1.6,1.6,2.7,4.201,3.019,3.012,11.75,10.588
55.0,1334430.717,-1.6,1.6,2.7,4.201,3.003,3.01,11.699,10.577
57.0,1370980.663,-1.6,1.6,2.7,4.201,3.001,2.997,11.693,10.536
59.0,1400977.72,-1.6,1.6,2.6,4.201,3.001,2.991,11.696,10.511
61.0,1437562.642,-1.6,1.6,2.7,4.201,2.998,3.002,11.685,10.54
63.0,1474268.608,-1.6,1.6,2.7,4.201,2.997,2.996,11.68,10.517
65.0,1510991.811,-1.6,1.6,2.7,4.201,2.99,2.996,11.658,10.51
67.0,1547793.559,-1.6,1.6,2.7,4.201,2.995,2.984,11.678,10.474
69.0,1584588.793,-1.6,1.6,2.7,4.201,2.98,2.981,11.627,10.457
71.0,1621556.546,-1.6,1.6,2.7,4.201,2.993,2.988,11.671,10.476
73.0,1658396.783,-1.6,1.6,2.7,4.201,2.986,2.98,11.647,10.443
75.0,1695320.251,-1.6,1.6,2.7,4.201,2.983,2.98,11.639,10.446
77.0,1732255.685,-1.6,1.6,2.7,4.201,2.984,2.997,11.643,10.508
79.0,1769078.501,-1.6,1.6,2.7,4.201,3.0,3.003,11.694,10.533
81.0,1805557.208,-1.6,1.6,2.7,4.201,2.999,2.992,11.684,10.489
83.0,1842597.651,-1.6,1.6,2.7,4.201,3.006,3.001,11.715,10.517
85.0,1879884.2,-1.6,1.6,2.7,4.2,2.916,2.901,11.421,10.115
87.0,1917319.573,-1.6,1.6,2.7,4.2,2.94,2.955,11.501,10.333
89.0,1947334.009,-1.6,1.6,2.7,4.2,2.411,2.407,9.256,8.264
91.0,1984545.921,-1.6,1.6,2.683,4.2,2.965,2.95,11.582,10.312
93.0,2021822.674,-1.6,1.6,2.7,4.2,2.951,2.943,11.538,10.284
95.0,2059152.168,-1.6,1.6,2.7,4.2,2.938,2.93,11.494,10.226
97.0,2096637.361,-1.6,1.6,2.7,4.2,2.949,2.945,11.531,10.288
99.0,2134091.118,-1.6,1.6,2.7,4.201,2.949,2.954,11.532,10.325
101.0,2171469.399,-1.6,1.6,2.7,4.201,2.957,2.944,11.557,10.277
103.0,2208776.935,-1.6,1.6,2.7,4.201,2.946,2.935,11.519,10.241
105.0,2246325.445,-1.6,1.6,2.7,4.2,2.942,2.929,11.507,10.215
107.0,2283888.991,-1.6,1.6,2.7,4.201,2.933,2.923,11.48,10.197
109.0,2321546.8,-1.6,1.6,2.7,4.2,2.918,2.907,11.431,10.125
111.0,2359129.111,-1.6,1.6,2.689,4.2,2.92,2.917,11.438,10.167
113.0,2396842.434,-1.6,1.6,2.652,4.2,2.917,2.906,11.429,10.12
115.0,2434555.586,-1.6,1.6,2.7,4.2,2.918,2.914,11.433,10.152
117.0,2472252.193,-1.6,1.6,2.7,4.2,2.919,2.924,11.432,10.167
119.0,2510092.382,-1.6,1.6,2.7,4.201,2.915,2.907,11.423,10.122
121.0,2547871.04,-1.6,1.6,2.688,4.2,2.928,2.908,11.468,10.126
123.0,2585745.996,-1.6,1.6,2.7,4.2,2.902,2.899,11.381,10.087
125.0,2623894.942,-1.6,1.6,2.7,4.2,2.897,2.89,11.365,10.054
127.0,2661891.407,-1.6,1.6,2.7,4.2,2.893,2.889,11.351,10.043
129.0,2699834.019,-1.6,1.6,2.7,4.2,2.894,2.876,11.354,9.992
131.0,2737890.821,-1.6,1.6,2.7,4.2,2.887,2.881,11.331,10.011
133.0,2775782.66,-1.6,1.6,2.7,4.2,2.886,2.878,11.325,10.002
135.0,2813910.451,-1.6,1.6,2.7,4.2,2.881,2.878,11.312,9.996
137.0,2851956.412,-1.6,1.6,2.7,4.2,2.878,2.871,11.302,9.973
139.0,2890133.06,-1.6,1.6,2.7,4.2,2.884,2.893,11.321,10.061
141.0,2928081.948,-1.6,1.6,2.7,4.2,2.874,2.873,11.29,9.973
143.0,2958056.709,-1.6,1.6,2.7,4.2,2.267,2.258,8.741,7.681
145.0,2987929.021,-1.6,1.6,2.7,4.2,2.264,2.263,8.73,7.695
147.0,3026193.775,-1.6,1.6,2.653,4.2,2.875,2.867,11.292,9.95
149.0,3064324.82,-1.6,1.6,2.7,4.2,2.858,2.857,11.234,9.911
151.0,3094297.504,-1.6,1.6,2.674,4.2,2.248,2.249,8.674,7.644
153.0,3132628.284,-1.6,1.6,2.7,4.2,2.858,2.849,11.235,9.873
155.0,3171087.588,-1.6,1.6,2.7,4.2,2.859,2.849,11.241,9.878
157.0,3200936.855,-1.6,1.6,2.7,4.2,2.243,2.243,8.655,7.62
159.0,3239320.461,-1.6,1.6,2.7,4.2,2.86,2.855,11.242,9.9
161.0,3277711.948,-1.6,1.6,2.7,4.2,2.869,2.866,11.274,9.944
163.0,3307506.017,-1.6,1.6,2.7,4.2,2.236,2.235,8.631,7.589
165.0,3346039.7,-1.6,1.6,2.7,4.2,2.854,2.849,11.227,9.876
167.0,3384410.513,-1.6,1.6,2.7,4.2,2.849,2.839,11.206,9.836
169.0,3422821.732,-1.6,1.6,2.7,4.2,2.844,2.839,11.19,9.836
171.0,3461298.868,-1.6,1.6,2.7,4.2,2.845,2.833,11.191,9.814
173.0,3491071.908,-1.6,1.6,2.7,4.2,2.21,2.213,8.538,7.507
175.0,3529591.219,-1.6,1.6,2.7,4.2,2.838,2.838,11.172,9.827
177.0,3568145.105,-1.6,1.6,2.7,4.2,2.833,2.822,11.156,9.767
179.0,3606675.838,-1.6,1.6,2.7,4.2,2.833,2.826,11.153,9.782
181.0,3645213.417,-1.6,1.6,2.7,4.2,2.83,2.826,11.146,9.783
183.0,3683829.438,-1.6,1.6,2.7,4.2,2.829,2.842,11.138,9.841
185.0,3722516.925,-1.6,1.6,2.7,4.2,2.825,2.821,11.127,9.76
187.0,3761114.937,-1.6,1.6,2.7,4.2,2.818,2.819,11.104,9.757
189.0,3799650.655,-1.6,1.6,2.7,4.2,2.821,2.819,11.114,9.752
191.0,3838293.379,-1.6,1.6,2.7,4.2,2.818,2.804,11.102,9.697
193.0,3876979.001,-1.6,1.6,2.563,4.2,2.818,2.815,11.103,9.733
195.0,3906581.159,-1.6,1.6,2.7,4.2,2.176,2.177,8.413,7.373
197.0,3945314.46,-1.6,1.6,2.7,4.2,2.806,2.813,11.067,9.728
199.0,3983958.774,-1.6,1.6,2.7,4.2,2.814,2.807,11.091,9.711
201.0,4022759.094,-1.6,1.6,2.7,4.2,2.803,2.803,11.056,9.691
203.0,4052512.608,-1.6,1.6,2.7,4.2,2.808,2.801,11.075,9.68
205.0,4080195.549,0.179,1.6,3.368,4.2,2.696,0.0,10.604,0.0