File: Li-ion_Batteries/UL-PUR_N20-OV1_18650_NCA_23C_0-100_0.5-0.5C_a_cycle_data.csv
Cycle_Index,Test_Time (s),Min_Current (A),Max_Current (A),Min_Voltage (V),Max_Voltage (V),Charge_Capacity (Ah),Discharge_Capacity (Ah),Charge_Energy (Wh),Discharge_Energy (Wh)
1.0,20859.928,-1.601,1.599,2.699,4.2,1.934,3.3,7.815,11.534
3.0,69324.815,-1.601,1.599,2.699,4.2,3.419,3.264,13.228,11.398
5.0,117717.986,-1.601,1.599,2.699,4.2,3.401,3.266,13.163,11.42
7.0,166142.446,-1.601,1.6,2.699,4.2,3.398,3.257,13.154,11.37
9.0,214687.041,-1.601,1.599,2.699,4.2,3.392,3.26,13.13,11.386
11.0,263705.563,-1.601,1.604,2.699,4.2,3.392,3.256,13.137,11.357
13.0,312487.119,-1.601,1.599,2.699,4.2,3.392,3.259,13.135,11.37
15.0,362079.138,-1.601,1.599,2.699,4.2,3.386,3.249,13.117,11.314
17.0,411741.619,-1.601,1.599,2.699,4.2,3.387,3.24,13.119,11.28
19.0,461941.388,-1.601,1.599,2.699,4.2,3.378,3.244,13.105,11.285
21.0,510674.304,-1.601,1.599,2.699,4.2,3.383,3.239,13.113,11.26
23.0,555089.993,-1.601,1.599,2.699,4.2,3.377,3.238,13.092,11.258
25.0,599772.467,-1.601,1.599,2.699,4.2,3.375,3.231,13.092,11.218
27.0,644795.64,-1.601,1.599,2.699,4.2,3.371,3.232,13.081,11.222
29.0,690246.733,-1.601,1.599,2.699,4.2,3.361,3.22,13.063,11.162
31.0,735534.894,-1.601,1.599,2.699,4.2,3.363,3.229,13.061,11.202
33.0,781219.398,-1.601,1.599,2.699,4.2,3.352,3.216,13.033,11.137
35.0,826678.031,-1.601,1.599,2.699,4.2,3.357,3.221,13.043,11.164
37.0,872798.044,-1.601,1.599,2.699,4.2,3.35,3.21,13.024,11.104
39.0,918707.244,-1.601,1.599,2.699,4.2,3.353,3.213,13.032,11.119
41.0,965180.788,-1.601,1.599,2.699,4.2,3.344,3.214,13.01,11.117
43.0,1011014.208,-1.601,1.599,2.699,4.2,3.354,3.219,13.032,11.147
45.0,1057850.438,-1.601,1.599,2.699,4.2,3.344,3.209,13.012,11.089
47.0,1104117.405,-1.601,1.599,2.699,4.2,3.349,3.207,13.018,11.083
49.0,1150874.642,-1.601,1.599,2.699,4.2,3.348,3.2,13.029,11.052
51.0,1197873.633,-1.601,1.599,2.699,4.2,3.351,3.194,13.033,11.011
53.0,1245134.643,-1.601,1.599,2.699,4.2,3.345,3.197,13.021,11.041
55.0,1292496.919,-1.601,1.599,2.699,4.2,3.341,3.189,13.017,10.985
57.0,1339956.718,-1.601,1.599,2.699,4.2,3.343,3.196,13.019,11.02
59.0,1387590.565,-1.601,1.6,2.699,4.2,3.336,3.184,12.998,10.96
61.0,1435485.096,-1.601,1.599,2.699,4.2,3.336,3.184,13.002,10.965
63.0,1483535.646,-1.601,1.599,2.699,4.2,3.331,3.182,12.989,10.94
65.0,1531447.02,-1.601,1.599,2.699,4.2,3.333,3.176,12.988,10.93
67.0,1580148.095,-1.601,1.599,2.699,4.2,3.32,3.177,12.955,10.909
69.0,1628638.894,-1.601,1.599,2.699,4.2,3.327,3.171,12.969,10.875
71.0,1677664.238,-1.601,1.599,2.699,4.2,3.318,3.173,12.955,10.888
73.0,1726659.567,-1.601,1.599,2.699,4.2,3.322,3.165,12.973,10.844
75.0,1775435.241,-1.601,1.599,2.699,4.2,3.317,3.171,12.95,10.881
77.0,1824361.237,-1.601,1.599,2.699,4.2,3.31,3.163,12.93,10.836
79.0,1873509.715,-1.601,1.599,2.699,4.2,3.317,3.167,12.951,10.855
81.0,1922737.671,-1.601,1.599,2.699,4.2,3.312,3.162,12.943,10.831
83.0,1971954.693,-1.601,1.599,2.699,4.2,3.311,3.156,12.932,10.797
85.0,2021932.746,-1.601,1.599,2.699,4.2,3.312,3.158,12.944,10.805
87.0,2071659.618,-1.601,1.599,2.699,4.2,3.307,3.156,12.925,10.788
89.0,2121014.458,-1.601,1.599,2.699,4.2,3.304,3.155,12.918,10.786
91.0,2170670.945,-1.601,1.599,2.699,4.2,3.302,3.152,12.912,10.766
93.0,2220229.034,-1.601,1.599,2.699,4.2,3.308,3.156,12.926,10.796
95.0,2270250.2,-1.601,1.599,2.699,4.2,3.302,3.15,12.922,10.754
97.0,2320524.028,-1.601,1.599,2.699,4.2,3.299,3.139,12.903,10.703
99.0,2370820.573,-1.601,1.599,2.699,4.2,3.299,3.144,12.911,10.724
101.0,2421626.11,-1.601,1.599,2.699,4.2,3.294,3.135,12.899,10.671
103.0,2472087.245,-1.601,1.599,2.699,4.2,3.297,3.142,12.902,10.705
105.0,2522716.707,-1.601,1.599,2.699,4.2,3.284,3.135,12.87,10.669
107.0,2573065.424,-1.601,1.599,2.699,4.2,3.294,3.136,12.893,10.68
109.0,2623819.604,-1.601,1.599,2.699,4.2,3.288,3.139,12.877,10.695
111.0,2674551.8,-1.601,1.599,2.699,4.2,3.287,3.131,12.88,10.654
113.0,2725851.338,-1.601,1.599,2.699,4.2,3.29,3.123,12.886,10.605
115.0,2777248.612,-1.601,1.6,2.699,4.2,3.279,3.122,12.859,10.592
117.0,2829118.225,-1.601,1.599,2.699,4.2,3.284,3.118,12.872,10.586
119.0,2880770.816,-1.601,1.599,2.699,4.2,3.272,3.12,12.84,10.583
121.0,2932525.92,-1.613,1.599,2.699,4.2,3.274,3.106,12.84,10.517
123.0,2985044.218,-1.601,1.599,2.699,4.2,3.275,3.115,12.853,10.56
125.0,3037615.311,-1.601,1.599,2.699,4.2,3.267,3.103,12.828,10.498
127.0,3090173.041,-1.601,1.6,2.699,4.2,3.261,3.105,12.806,10.508
129.0,3142802.557,-1.601,1.599,2.699,4.2,3.259,3.109,12.796,10.524
131.0,3195224.542,-1.601,1.599,2.699,4.2,3.255,3.103,12.784,10.494
133.0,3247742.799,-1.601,1.609,2.699,4.2,3.256,3.101,12.784,10.485
135.0,3300355.253,-1.601,1.599,2.699,4.2,3.249,3.097,12.768,10.463
137.0,3352829.73,-1.601,1.599,2.699,4.2,3.25,3.093,12.767,10.448
139.0,3405795.395,-1.601,1.599,2.699,4.2,3.248,3.098,12.77,10.473
141.0,3458538.952,-1.601,1.599,2.699,4.2,3.243,3.085,12.748,10.408
143.0,3511413.434,-1.601,1.599,2.699,4.2,3.248,3.089,12.761,10.431
145.0,3564765.735,-1.609,1.599,2.699,4.2,3.245,3.08,12.756,10.38
147.0,3618098.805,-1.601,1.599,2.699,4.2,3.24,3.089,12.739,10.409
149.0,3671609.606,-1.601,1.599,2.699,4.2,3.238,3.09,12.741,10.427
151.0,3724770.265,-1.601,1.599,2.699,4.2,3.23,3.086,12.703,10.413
153.0,3777481.654,-1.601,1.599,2.699,4.2,3.234,3.088,12.705,10.42
155.0,3830033.656,-1.601,1.599,2.699,4.2,3.232,3.085,12.696,10.413
157.0,3882828.183,-1.601,1.599,2.699,4.2,3.233,3.078,12.704,10.377
159.0,3936111.022,-1.601,1.599,2.699,4.2,3.228,3.079,12.692,10.384
161.0,3989456.192,-1.601,1.599,2.699,4.2,3.221,3.073,12.673,10.346
163.0,4042823.307,-1.601,1.599,2.699,4.2,3.223,3.069,12.67,10.33
165.0,4096534.107,-1.601,1.599,2.699,4.2,3.214,3.067,12.65,10.326
167.0,4150588.801,-1.601,1.599,2.699,4.2,3.22,3.055,12.679,10.264
169.0,4205011.325,-1.601,1.599,2.699,4.2,3.225,3.064,12.7,10.32
171.0,4259585.233,-1.601,1.599,2.699,4.2,3.218,3.054,12.672,10.269
173.0,4314124.439,-1.601,1.599,2.699,4.2,3.223,3.053,12.684,10.275
175.0,4368789.783,-1.601,1.599,2.699,4.2,3.219,3.053,12.677,10.27
177.0,4423520.912,-1.601,1.599,2.699,4.2,3.217,3.049,12.672,10.245
179.0,4478120.43,-1.601,1.599,2.699,4.2,3.216,3.05,12.66,10.25
181.0,4533200.759,-1.601,1.599,2.699,4.2,3.203,3.04,12.63,10.2
183.0,4589098.089,-1.601,1.599,2.699,4.2,3.209,3.035,12.651,10.16
185.0,4644563.656,-1.601,1.599,2.699,4.2,3.204,3.036,12.634,10.182
187.0,4700581.503,-1.601,1.599,2.699,4.2,3.193,3.024,12.611,10.126
189.0,4756650.69,-1.601,1.599,2.699,4.2,3.193,3.016,12.602,10.08
191.0,4812790.921,-1.601,1.599,2.699,4.2,3.195,3.022,12.604,10.129
193.0,4869084.143,-1.601,1.599,2.699,4.2,3.192,3.022,12.604,10.126
195.0,4924616.701,-1.601,1.599,2.699,4.2,3.193,3.028,12.592,10.157
197.0,4979844.226,-1.601,1.599,2.699,4.2,3.19,3.022,12.582,10.123
199.0,5036046.633,-1.601,1.599,2.699,4.2,3.184,3.016,12.581,10.091
201.0,5092090.875,-1.601,1.599,2.699,4.2,3.183,3.011,12.567,10.072
203.0,5148978.024,-1.601,1.599,2.699,4.2,3.184,3.008,12.58,10.061
205.0,5204657.616,-1.601,1.599,2.699,4.2,3.184,3.013,12.565,10.092
207.0,5261098.341,-1.601,1.599,2.699,4.2,3.182,3.003,12.567,10.037
209.0,5317602.514,-1.601,1.599,2.699,4.2,3.173,3.001,12.537,10.029
211.0,5374685.781,-1.601,1.599,2.699,4.2,3.173,2.998,12.548,10.01
213.0,5432034.789,-1.601,1.599,2.699,4.2,3.175,2.996,12.548,10.011
215.0,5488796.657,-1.601,1.599,2.699,4.2,3.168,2.994,12.525,10.008
217.0,5545656.413,-1.601,1.599,2.699,4.2,3.164,2.992,12.512,9.988
219.0,5603196.21,-1.601,1.599,2.699,4.2,3.167,2.989,12.523,9.975
221.0,5660134.749,-1.601,1.599,2.699,4.2,3.15,2.987,12.481,9.967
223.0,5716100.273,-1.601,1.599,2.699,4.2,3.169,2.997,12.507,10.031
225.0,5772035.816,-1.601,1.599,2.699,4.2,3.154,2.997,12.467,10.033
227.0,5826906.254,-1.601,1.599,2.699,4.2,3.162,3.0,12.479,10.051
229.0,5882880.753,-1.601,1.599,2.699,4.2,3.153,2.976,12.461,9.908
231.0,5940159.574,-1.601,1.599,2.699,4.2,3.147,2.976,12.455,9.917
233.0,5998094.917,-1.601,1.599,2.699,4.2,3.145,2.97,12.459,9.888
235.0,6054886.989,-1.601,1.599,2.699,4.2,3.131,2.963,12.397,9.861
237.0,6112670.269,-1.601,1.599,2.699,4.2,3.139,2.966,12.436,9.871
239.0,6169800.211,-1.601,1.599,2.699,4.2,3.137,2.976,12.418,9.929
241.0,6226650.264,-1.601,1.599,2.699,4.2,3.135,2.962,12.41,9.862
243.0,6283307.555,-1.601,1.599,2.699,4.2,3.135,2.965,12.409,9.889
245.0,6340404.844,-1.601,1.599,2.699,4.2,3.13,2.962,12.394,9.86
247.0,6398338.825,-1.601,1.599,2.699,4.2,3.133,2.955,12.41,9.819
249.0,6456422.285,-1.609,1.599,2.699,4.2,3.127,2.954,12.394,9.82
251.0,6514090.47,-1.601,1.599,2.699,4.2,3.125,2.957,12.375,9.843
253.0,6570910.54,-1.601,1.599,2.699,4.2,3.124,2.953,12.372,9.826
255.0,6628005.163,-1.601,1.599,2.699,4.2,3.122,2.951,12.364,9.821
257.0,6684213.725,-1.601,1.599,2.699,4.2,3.127,2.961,12.367,9.877
259.0,6740684.78,-1.601,1.599,2.699,4.2,3.116,2.943,12.341,9.779
261.0,6797318.289,-1.601,1.599,2.699,4.2,3.11,2.942,12.324,9.779
263.0,6855009.459,-1.601,1.599,2.699,4.2,3.116,2.942,12.349,9.779
265.0,6912389.656,-1.601,1.599,2.699,4.2,3.106,2.933,12.314,9.736
267.0,6969968.712,-1.601,1.599,2.699,4.2,3.109,2.935,12.323,9.754
269.0,7027975.805,-1.601,1.599,2.699,4.2,3.111,2.933,12.337,9.741
271.0,7086048.543,-1.601,1.599,2.699,4.2,3.108,2.922,12.325,9.685
273.0,7144515.787,-1.601,1.599,2.699,4.2,3.114,2.93,12.357,9.725
275.0,7197620.803,-1.601,1.599,2.7,4.2,3.101,2.499,12.312,8.542
277.0,7243370.94,-1.601,1.599,2.7,4.2,2.655,2.516,10.605,8.567
279.0,7288785.05,-1.601,1.599,2.7,4.2,2.64,2.495,10.558,8.502
281.0,7334450.027,-1.62,1.599,2.699,4.2,2.654,2.493,10.601,8.487
283.0,7380729.317,-1.601,1.599,2.7,4.2,2.637,2.49,10.548,8.47
285.0,7426282.349,-1.601,1.599,2.7,4.2,2.63,2.477,10.514,8.417
287.0,7472869.246,-1.601,1.599,2.7,4.2,2.632,2.495,10.53,8.486
289.0,7519301.419,-1.601,1.599,2.7,4.2,2.626,2.458,10.505,8.353
291.0,7565101.039,-1.621,1.599,2.699,4.2,2.613,2.489,10.455,8.458
293.0,7611512.628,-1.601,1.599,2.7,4.2,2.616,2.458,10.473,8.355
295.0,7657612.986,-1.601,1.599,2.7,4.2,2.617,2.484,10.471,8.442
297.0,7702817.005,-1.601,1.599,2.7,4.2,2.599,2.455,10.409,8.338
299.0,7747752.468,-1.601,1.599,2.7,4.2,2.591,2.486,10.371,8.451
301.0,7771185.141,1.599,1.599,3.447,3.751,0.339,0.0,1.248,0.0