File: Li-ion_Batteries/UL-PUR_R10-NA11_18650_NCA_23C_2.5-96.5_0.5-0.5C_k_cycle_data.csv
Cycle_Index,Test_Time (s),Min_Current (A),Max_Current (A),Min_Voltage (V),Max_Voltage (V),Charge_Capacity (Ah),Discharge_Capacity (Ah),Charge_Energy (Wh),Discharge_Energy (Wh)
1.0,7563.364,-1.6,1.599,2.898,4.095,0.001,3.091,0.003,11.024
4.0,52937.836,-1.6,1.599,2.9,4.0,2.523,2.527,9.563,8.843
7.0,98227.277,-1.6,1.599,2.9,4.0,2.522,2.52,9.555,8.818
10.0,143467.925,-1.6,1.599,2.9,4.0,2.518,2.518,9.54,8.811
13.0,188673.478,-1.6,1.599,2.9,4.0,2.509,2.514,9.509,8.794
16.0,233872.07,-1.6,1.599,2.9,4.0,2.512,2.515,9.518,8.798
19.0,279017.105,-1.6,1.599,2.9,4.0,2.501,2.499,9.481,8.743
22.0,324148.448,-1.6,1.599,2.9,4.0,2.507,2.507,9.5,8.77
25.0,369346.853,-1.6,1.599,2.9,4.0,2.515,2.501,9.527,8.745
28.0,414450.717,-1.633,1.599,2.895,4.0,2.501,2.506,9.481,8.762
31.0,459610.765,-1.6,1.599,2.9,4.0,2.505,2.51,9.493,8.778
34.0,504734.108,-1.6,1.599,2.9,4.0,2.506,2.509,9.498,8.771
37.0,549856.758,-1.6,1.599,2.9,4.0,2.489,2.482,9.439,8.673
40.0,589595.595,-1.6,1.599,2.9,4.0,2.496,2.517,9.463,8.803
43.0,634621.903,-1.6,1.599,2.9,4.0,2.484,2.481,9.424,8.669
46.0,668845.419,-1.6,1.599,2.899,4.0,2.485,2.486,9.428,8.684
49.0,713971.689,-1.6,1.599,2.9,4.0,2.491,2.494,9.446,8.713
52.0,759159.856,-1.6,1.599,2.9,4.0,2.484,2.489,9.424,8.694
55.0,798899.29,-1.6,1.599,2.899,4.0,2.484,2.483,9.425,8.672
58.0,844172.249,-1.6,1.599,2.9,4.0,2.484,2.477,9.423,8.651
61.0,889322.952,-1.6,1.599,2.9,4.0,2.467,2.476,9.367,8.641
64.0,934481.627,-1.6,1.599,2.9,4.0,2.489,2.503,9.439,8.744
67.0,979669.398,-1.6,1.599,2.9,4.0,2.474,2.473,9.389,8.631
70.0,1024832.672,-1.6,1.599,2.9,4.0,2.499,2.494,9.473,8.713
73.0,1064567.674,-1.6,1.599,2.899,4.0,2.483,2.473,9.421,8.633
76.0,1109851.114,-1.6,1.599,2.9,4.0,2.502,2.51,9.482,8.768
79.0,1155055.565,-1.616,1.599,2.896,4.0,2.479,2.472,9.407,8.623
82.0,1200283.944,-1.6,1.599,2.9,4.0,2.482,2.494,9.414,8.703
85.0,1245539.644,-1.6,1.599,2.9,4.0,2.471,2.483,9.38,8.662
88.0,1290800.282,-1.6,1.599,2.9,4.0,2.507,2.511,9.497,8.767
91.0,1335953.57,-1.6,1.599,2.9,4.0,2.469,2.477,9.375,8.64
94.0,1381157.716,-1.828,1.599,2.886,4.0,2.522,2.523,9.545,8.814
97.0,1426494.566,-1.6,1.599,2.9,4.0,2.451,2.457,9.311,8.564
100.0,1471720.027,-1.6,1.599,2.899,4.0,2.472,2.451,9.379,8.546
103.0,1517119.203,-1.6,1.599,2.9,4.0,2.449,2.456,9.307,8.559
106.0,1562332.17,-1.6,1.599,2.9,4.0,2.454,2.443,9.32,8.515
109.0,1607651.354,-1.6,1.599,2.9,4.0,2.435,2.44,9.258,8.499
112.0,1652955.761,-1.626,1.599,2.896,4.0,2.444,2.441,9.288,8.504
115.0,1698251.239,-1.6,1.599,2.9,4.0,2.435,2.441,9.258,8.504
118.0,1743590.864,-1.6,1.599,2.9,4.0,2.439,2.429,9.274,8.46
121.0,1788931.624,-1.6,1.599,2.9,4.0,2.429,2.43,9.239,8.462
124.0,1834277.203,-1.6,1.599,2.9,4.0,2.425,2.41,9.226,8.386
127.0,1879672.247,-1.6,1.599,2.9,4.0,2.422,2.427,9.216,8.449
130.0,1925015.476,-1.6,1.599,2.9,4.0,2.436,2.441,9.261,8.503
133.0,1970465.498,-1.6,1.599,2.9,4.0,2.448,2.464,9.304,8.584
136.0,2015716.308,-1.6,1.599,2.9,4.0,2.448,2.456,9.3,8.556
139.0,2061142.031,-1.6,1.599,2.9,4.0,2.463,2.467,9.352,8.597
142.0,2106633.531,-1.6,1.599,2.9,4.0,2.409,2.407,9.175,8.37
145.0,2146047.521,-1.6,1.599,2.9,4.0,1.884,1.9,7.068,6.483
148.0,2191599.931,-1.6,1.599,2.9,4.0,2.401,2.4,9.146,8.344
151.0,2237107.772,-1.6,1.599,2.9,4.0,2.414,2.415,9.189,8.401
154.0,2282654.221,-1.6,1.599,2.9,4.0,2.398,2.401,9.135,8.347
157.0,2328168.372,-1.6,1.599,2.9,4.0,2.413,2.419,9.185,8.415
160.0,2367584.466,-1.6,1.599,2.899,4.0,2.393,2.4,9.12,8.344
163.0,2413174.354,-1.6,1.599,2.9,4.0,2.414,2.417,9.189,8.409
166.0,2458790.181,-1.6,1.599,2.9,4.0,2.401,2.402,9.145,8.351
169.0,2504417.364,-1.6,1.599,2.9,4.0,2.412,2.408,9.184,8.372
172.0,2549962.249,-1.6,1.599,2.9,4.0,2.393,2.4,9.118,8.341
175.0,2589357.816,-1.6,1.599,2.9,4.0,2.404,2.417,9.154,8.404
178.0,2634922.341,-1.6,1.599,2.9,4.0,2.388,2.396,9.102,8.329
181.0,2674467.728,-1.6,1.599,2.9,4.0,2.409,2.403,9.172,8.355
184.0,2720093.01,-1.6,1.599,2.9,4.0,2.396,2.403,9.127,8.351
187.0,2765699.479,-1.6,1.599,2.899,4.0,2.407,2.395,9.162,8.328
190.0,2811388.937,-1.6,1.599,2.9,4.0,2.386,2.391,9.094,8.309
193.0,2856219.628,-1.6,1.599,2.899,4.0,2.389,2.376,9.101,8.257
196.0,2901789.175,-1.6,1.599,2.9,4.0,2.384,2.386,9.086,8.294
199.0,2947312.646,-1.6,1.599,2.9,4.0,2.385,2.384,9.089,8.287
202.0,2992874.845,-1.6,1.599,2.899,4.0,2.385,2.394,9.089,8.321
205.0,3038475.122,-1.6,1.599,2.9,4.0,2.373,2.391,9.052,8.309
208.0,3084110.534,-1.6,1.599,2.9,4.0,2.383,2.388,9.084,8.304
211.0,3129725.245,-1.6,1.599,2.899,4.0,2.37,2.375,9.038,8.251
214.0,3175314.267,-1.6,1.599,2.9,4.0,2.377,2.372,9.062,8.237
217.0,3221106.08,-1.6,1.599,2.9,4.0,2.37,2.388,9.039,8.289
220.0,3266892.02,-1.6,1.599,2.9,4.0,2.368,2.359,9.031,8.187
223.0,3312610.741,-1.6,1.599,2.9,4.0,2.364,2.365,9.02,8.213
226.0,3358383.233,-1.6,1.599,2.9,4.0,2.365,2.359,9.025,8.185
229.0,3404058.879,-1.6,1.599,2.9,4.0,2.359,2.357,9.001,8.182
232.0,3443268.479,-1.6,1.599,2.9,4.0,2.368,2.353,9.037,8.168
235.0,3482539.84,-1.6,1.599,2.9,4.0,2.372,2.367,9.043,8.221
238.0,3528261.382,-1.6,1.599,2.899,4.0,2.368,2.355,9.031,8.176
241.0,3573973.438,-1.6,1.599,2.899,4.0,2.354,2.357,8.984,8.182
244.0,3619739.945,-1.6,1.599,2.899,4.0,2.355,2.356,8.988,8.176
247.0,3658857.848,-1.6,1.599,2.9,4.0,1.779,1.796,6.69,6.107
250.0,3704616.166,-1.6,1.599,2.9,4.0,2.357,2.348,8.991,8.144
253.0,3750494.169,-1.6,1.599,2.899,4.0,2.352,2.35,8.978,8.154
256.0,3796228.519,-1.6,1.599,2.9,4.0,2.345,2.347,8.955,8.141
259.0,3842358.162,-1.6,1.599,2.9,4.0,2.368,2.337,9.036,8.103
262.0,3888268.09,-1.6,1.599,2.9,4.0,2.328,2.33,8.897,8.078
265.0,3934174.722,-1.6,1.599,2.9,4.0,2.337,2.339,8.926,8.113
268.0,3980009.14,-1.6,1.599,2.9,4.0,2.327,2.33,8.893,8.078
271.0,4025867.843,-1.6,1.599,2.9,4.0,2.333,2.334,8.914,8.096
274.0,4071727.078,-1.6,1.599,2.9,4.0,2.326,2.328,8.89,8.068
277.0,4117634.549,-1.796,1.599,2.886,4.0,2.335,2.337,8.92,8.102
280.0,4156846.664,-1.6,1.599,2.9,4.0,2.324,2.331,8.883,8.082
283.0,4202723.102,-1.6,1.599,2.9,4.0,2.333,2.339,8.915,8.111
286.0,4248799.37,-1.6,1.599,2.9,4.0,2.319,2.333,8.868,8.088
289.0,4294756.343,-1.6,1.599,2.9,4.0,2.334,2.326,8.916,8.068
292.0,4340624.959,-1.6,1.599,2.9,4.0,2.324,2.331,8.882,8.08
295.0,4379808.329,-1.6,1.599,2.899,4.0,2.328,2.33,8.896,8.088
298.0,4425707.998,-1.6,1.599,2.9,4.0,2.322,2.328,8.873,8.069
301.0,4471354.028,-1.6,1.599,2.9,4.0,2.324,2.318,8.88,8.033
304.0,4517240.293,-1.6,1.599,2.9,4.0,2.319,2.323,8.863,8.051
307.0,4563115.548,-1.6,1.599,2.9,4.0,2.327,2.311,8.892,8.009
310.0,4608998.62,-1.6,1.599,2.9,4.0,2.316,2.319,8.854,8.038
313.0,4654866.837,-1.6,1.599,2.899,4.0,2.307,2.306,8.825,7.99
316.0,4700643.314,-1.6,1.599,2.9,4.0,2.317,2.311,8.857,8.008
319.0,4746489.151,-1.6,1.599,2.9,4.0,2.307,2.308,8.826,7.993
322.0,4792362.687,-1.6,1.599,2.899,4.0,2.312,2.319,8.839,8.036
325.0,4831513.282,-1.6,1.599,2.9,4.0,2.295,2.297,8.785,7.953
328.0,4877467.036,-1.6,1.599,2.9,4.0,2.315,2.31,8.849,8.003
331.0,4923406.782,-1.6,1.599,2.9,4.0,2.286,2.297,8.753,7.954
334.0,4969300.205,-1.6,1.599,2.9,4.0,2.305,2.309,8.816,7.997
337.0,5015162.37,-1.6,1.599,2.9,4.0,2.274,2.294,8.706,7.943
340.0,5054248.358,-1.6,1.599,2.9,4.0,2.303,2.292,8.818,7.936
343.0,5100250.718,-1.6,1.599,2.9,4.0,2.286,2.287,8.75,7.917
346.0,5146248.532,-1.6,1.599,2.9,4.0,2.289,2.287,8.76,7.917
349.0,5192185.274,-1.6,1.599,2.9,4.0,2.286,2.28,8.749,7.889
352.0,5238162.119,-1.6,1.599,2.9,4.0,2.285,2.289,8.747,7.927
355.0,5284171.752,-1.6,1.599,2.9,4.0,2.289,2.283,8.762,7.905
358.0,5330122.894,-1.6,1.599,2.9,4.0,2.283,2.29,8.74,7.929
361.0,5376185.008,-1.6,1.599,2.9,4.0,2.277,2.287,8.721,7.919
364.0,5422090.957,-1.6,1.599,2.9,4.0,2.277,2.244,8.717,7.762
367.0,5468039.601,-1.6,1.599,2.9,4.0,2.258,2.276,8.655,7.878
370.0,5514126.342,-1.6,1.599,2.9,4.0,2.273,2.239,8.707,7.738
373.0,5560150.382,-1.6,1.599,2.9,4.0,2.268,2.269,8.687,7.849
376.0,5606045.276,-1.6,1.599,2.9,4.0,2.25,2.262,8.626,7.826
379.0,5651845.05,-1.6,1.599,2.9,4.0,2.275,2.271,8.708,7.851
382.0,5697891.524,-1.6,1.599,2.9,4.0,2.234,2.24,8.577,7.743
385.0,5743917.515,-1.6,1.599,2.899,4.0,2.255,2.253,8.643,7.793
388.0,5789989.443,-1.6,1.599,2.9,4.0,2.242,2.244,8.601,7.758
391.0,5836079.649,-1.6,1.599,2.899,4.0,2.251,2.252,8.632,7.788
394.0,5882014.167,-1.6,1.599,2.9,4.0,2.251,2.257,8.63,7.802
397.0,5928035.196,-1.6,1.599,2.9,4.0,2.252,2.263,8.633,7.825
400.0,5974210.027,-1.6,1.599,2.9,4.0,2.241,2.252,8.596,7.786
403.0,6020227.13,-2.578,1.599,2.843,4.0,2.249,2.25,8.622,7.78
406.0,6066460.577,-1.6,1.599,2.9,4.0,2.234,2.248,8.569,7.774
409.0,6112321.943,-1.6,1.599,2.9,4.0,2.246,2.219,8.61,7.663
412.0,6150955.872,-1.6,1.599,2.9,4.0,2.247,2.244,8.621,7.756
415.0,6196896.445,-1.6,1.599,2.899,4.0,2.238,2.219,8.585,7.67
418.0,6243081.633,-1.6,1.599,2.9,4.0,2.238,2.24,8.584,7.74
421.0,6289067.379,-1.6,1.599,2.899,4.0,2.236,2.232,8.577,7.712
424.0,6335157.844,-1.6,1.599,2.9,4.0,2.236,2.237,8.576,7.73
427.0,6381355.044,-1.6,1.599,2.9,4.0,2.226,2.232,8.548,7.711
430.0,6427381.994,-1.6,1.599,2.9,4.0,2.232,2.233,8.564,7.718
433.0,6473384.894,-1.6,1.599,2.9,4.0,2.197,2.229,8.441,7.68
436.0,6518939.952,-1.6,1.599,2.9,4.0,2.227,2.225,8.546,7.684
439.0,6565144.929,-1.6,1.599,2.9,4.0,2.215,2.209,8.507,7.628
442.0,6611263.426,-1.6,1.599,2.9,4.0,2.223,2.224,8.531,7.685
445.0,6657132.067,-5.152,1.599,2.72,4.0,2.184,2.2,8.399,7.587
448.0,6703104.812,-1.6,1.599,2.9,4.0,2.221,2.218,8.525,7.662
451.0,6749132.171,-1.6,1.599,2.9,4.0,2.186,2.212,8.406,7.64
454.0,6795132.405,-1.6,1.599,2.9,4.0,2.22,2.219,8.521,7.666
455.0,6805727.275,-1.6,1.599,3.414,4.0,2.215,0.141,8.508,0.536