File: Li-ion_Batteries/UL-PUR_R15-OV3_18650_NCA_23C_2.5-96.5_0.5-0.5C_c_cycle_data.csv
Cycle_Index,Test_Time (s),Min_Current (A),Max_Current (A),Min_Voltage (V),Max_Voltage (V),Charge_Capacity (Ah),Discharge_Capacity (Ah),Charge_Energy (Wh),Discharge_Energy (Wh)
1.0,17839.755,-1.133,1.134,2.9,4.0,1.6,2.7,6.155,9.424
5.0,104216.25,-1.133,1.134,2.9,4.0,2.698,2.695,10.09,9.404
9.0,185040.696,-1.133,1.134,2.9,4.0,2.695,2.693,10.08,9.399
13.0,270999.905,-1.133,1.134,2.9,4.0,2.694,2.691,10.074,9.389
17.0,351934.198,-1.133,1.134,2.9,4.0,2.691,2.688,10.065,9.377
21.0,438124.409,-1.133,1.134,2.9,4.0,2.688,2.686,10.059,9.365
25.0,518785.061,-1.133,1.134,2.9,4.0,2.688,2.685,10.054,9.369
29.0,604508.719,-1.133,1.134,2.9,4.0,2.687,2.684,10.049,9.367
33.0,684950.561,-1.133,1.134,2.9,4.0,2.686,2.681,10.044,9.354
37.0,770968.5,-1.133,1.134,2.9,4.0,2.683,2.679,10.036,9.342
41.0,856960.636,-1.133,1.134,2.9,4.0,2.68,2.678,10.028,9.333
45.0,942850.267,-1.133,1.134,2.9,4.0,2.679,2.676,10.025,9.323
49.0,1028673.182,-1.133,1.134,2.9,4.0,2.677,2.674,10.017,9.32
53.0,1099210.176,-1.6,1.6,2.9,4.0,2.677,2.675,10.102,9.218
57.0,1165979.402,-1.6,1.6,2.9,4.0,2.675,2.498,10.095,8.697
61.0,1226652.286,-1.61,1.6,2.9,4.0,2.492,2.494,9.452,8.683
65.0,1287296.824,-1.6,1.6,2.9,4.0,2.495,2.494,9.463,8.683
69.0,1342252.952,-1.6,1.6,2.9,4.0,1.98,1.981,7.408,6.767
73.0,1402935.634,-1.6,1.6,2.9,4.0,2.484,2.481,9.424,8.634
77.0,1463499.784,-1.6,1.6,2.9,4.0,2.483,2.488,9.422,8.657
81.0,1524149.516,-1.6,1.6,2.9,4.0,2.476,2.479,9.398,8.624
85.0,1584835.493,-1.6,1.6,2.9,4.0,2.47,2.469,9.377,8.588
89.0,1645514.779,-1.6,1.6,2.9,4.0,2.474,2.479,9.392,8.619
93.0,1706230.722,-1.6,1.6,2.9,4.0,2.474,2.468,9.392,8.587
97.0,1766821.237,-1.6,1.6,2.9,4.001,2.489,2.49,9.44,8.662
101.0,1827461.483,-1.606,1.6,2.9,4.001,2.492,2.486,9.45,8.648
105.0,1882289.892,-1.6,1.6,2.9,4.0,2.413,2.402,9.19,8.337
109.0,1937262.285,-1.6,1.6,2.9,4.0,2.457,2.456,9.337,8.537
113.0,1998001.37,-1.6,1.6,2.9,4.0,2.448,2.443,9.307,8.486
117.0,2058704.21,-1.6,1.6,2.9,4.0,2.436,2.429,9.265,8.435
121.0,2119436.347,-1.6,1.6,2.9,4.0,2.443,2.438,9.29,8.471
125.0,2180107.184,-1.6,1.6,2.9,4.0,2.443,2.447,9.289,8.502
129.0,2240811.496,-1.6,1.6,2.9,4.0,2.442,2.427,9.285,8.426
133.0,2301514.317,-1.6,1.6,2.9,4.0,2.425,2.421,9.229,8.41
137.0,2362332.638,-1.6,1.6,2.9,4.0,2.425,2.424,9.23,8.413
141.0,2423145.895,-1.6,1.6,2.9,4.0,2.424,2.42,9.225,8.4
145.0,2483708.351,-1.6,1.6,2.9,4.0,2.412,2.415,9.181,8.379
149.0,2544476.575,-1.6,1.6,2.9,4.0,2.434,2.417,9.258,8.389
153.0,2605351.327,-1.6,1.6,2.9,4.0,2.422,2.407,9.221,8.35
157.0,2666174.051,-1.6,1.6,2.9,4.0,2.399,2.401,9.141,8.326
161.0,2727026.185,-1.6,1.6,2.9,4.0,2.392,2.399,9.118,8.32
165.0,2787988.45,-1.6,1.6,2.9,4.0,2.396,2.39,9.131,8.284
169.0,2848899.824,-1.6,1.6,2.9,4.0,2.393,2.394,9.121,8.301
173.0,2909874.684,-1.6,1.6,2.9,4.0,2.413,2.394,9.187,8.305
177.0,2970782.674,-1.6,1.6,2.9,4.0,2.387,2.388,9.1,8.278
181.0,3031694.566,-1.6,1.6,2.9,4.0,2.388,2.39,9.104,8.285
185.0,3086061.226,-1.6,1.6,2.9,4.0,2.388,2.38,9.109,8.246
189.0,3147028.903,-1.6,1.6,2.9,4.0,2.376,2.383,9.063,8.257
193.0,3208029.447,-1.606,1.6,2.9,4.0,2.383,2.387,9.087,8.272
197.0,3268980.949,-1.6,1.6,2.9,4.0,2.393,2.392,9.12,8.292
201.0,3323520.29,-1.6,1.6,2.9,4.0,2.388,2.383,9.109,8.255
205.0,3384464.457,-1.6,1.6,2.9,4.0,2.382,2.378,9.082,8.237
209.0,3439074.337,-1.6,1.6,2.9,4.0,2.38,2.376,9.077,8.232
213.0,3500066.831,-1.6,1.6,2.9,4.0,2.376,2.375,9.064,8.229
217.0,3561082.073,-1.6,1.6,2.9,4.0,2.375,2.368,9.06,8.202
221.0,3622090.227,-1.6,1.6,2.9,4.0,2.371,2.37,9.049,8.211
225.0,3683142.3,-1.6,1.6,2.9,4.0,2.372,2.392,9.049,8.283
229.0,3737700.496,-1.6,1.6,2.9,4.0,2.369,2.366,9.041,8.193
233.0,3798751.271,-1.6,1.6,2.9,4.0,2.366,2.368,9.031,8.198
237.0,3859751.003,-1.6,1.6,2.9,4.0,2.357,2.365,9.001,8.189
241.0,3914288.183,-1.6,1.6,2.9,4.0,2.362,2.362,9.016,8.179
245.0,3975337.072,-1.6,1.6,2.9,4.0,2.361,2.361,9.013,8.178
249.0,4036410.652,-1.6,1.6,2.9,4.0,2.362,2.359,9.017,8.169
253.0,4097504.495,-1.6,1.6,2.9,4.0,2.364,2.356,9.023,8.156
257.0,4158532.295,-1.6,1.6,2.9,4.0,2.351,2.349,8.979,8.13
261.0,4219482.638,-1.6,1.6,2.9,4.0,2.355,2.352,8.991,8.14
265.0,4280572.58,-1.6,1.6,2.9,4.0,2.354,2.352,8.989,8.139
269.0,4334786.37,-1.6,1.6,2.9,4.0,2.358,2.35,9.003,8.133
273.0,4395892.371,-1.6,1.6,2.9,4.0,2.353,2.357,8.985,8.157
277.0,4456894.569,-1.6,1.6,2.9,4.0,2.35,2.35,8.976,8.134
281.0,4517848.731,-1.6,1.6,2.9,4.0,2.349,2.346,8.971,8.121
285.0,4578917.939,-1.6,1.6,2.9,4.0,2.346,2.349,8.961,8.13
289.0,4639970.283,-1.6,1.6,2.9,4.0,2.344,2.337,8.954,8.086
293.0,4701026.334,-1.6,1.6,2.9,4.0,2.349,2.344,8.971,8.111
297.0,4762053.353,-1.6,1.6,2.9,4.0,2.34,2.338,8.938,8.089
301.0,4823110.744,-1.6,1.6,2.9,4.0,2.334,2.328,8.921,8.051
305.0,4884039.184,-1.6,1.6,2.9,4.0,2.341,2.336,8.942,8.083
309.0,4944952.612,-1.6,1.6,2.9,4.0,2.329,2.332,8.904,8.068
313.0,5005952.128,-1.6,1.6,2.9,4.0,2.333,2.332,8.915,8.064
317.0,5066924.634,-1.6,1.6,2.9,4.0,2.322,2.319,8.881,8.017
321.0,5127791.111,-1.6,1.6,2.9,4.0,2.337,2.336,8.928,8.081
325.0,5188722.3,-1.6,1.6,2.9,4.0,2.32,2.33,8.873,8.058
329.0,5249507.887,-1.6,1.6,2.9,4.0,2.329,2.323,8.902,8.033
333.0,5310318.103,-1.6,1.6,2.9,4.0,2.328,2.327,8.898,8.05
337.0,5364351.965,-1.6,1.6,2.9,4.0,1.712,1.712,6.446,5.787
341.0,5418655.653,-1.6,1.6,2.9,4.0,2.309,2.316,8.836,8.004
345.0,5479543.856,-1.6,1.6,2.9,4.0,2.318,2.308,8.867,7.975
349.0,5540549.549,-1.6,1.6,2.9,4.0,2.315,2.306,8.853,7.969
353.0,5594668.215,-1.6,1.6,2.9,4.0,2.309,2.309,8.84,7.98
357.0,5648877.096,-1.6,1.6,2.9,4.0,1.732,1.737,6.519,5.88
361.0,5709903.119,-1.6,1.6,2.9,4.0,2.325,2.323,8.888,8.032
365.0,5770835.796,-1.6,1.6,2.9,4.0,2.316,2.31,8.858,7.987
369.0,5831806.694,-1.6,1.6,2.9,4.0,2.312,2.305,8.843,7.965
373.0,5892814.553,-1.6,1.6,2.9,4.0,2.298,2.297,8.796,7.936
377.0,5946977.256,-1.6,1.6,2.9,4.0,2.29,2.294,8.773,7.921
381.0,6008037.62,-1.6,1.6,2.9,4.0,2.299,2.295,8.798,7.926
385.0,6068937.92,-1.6,1.6,2.9,4.0,2.297,2.291,8.793,7.913
389.0,6129830.673,-1.6,1.6,2.9,4.0,2.298,2.299,8.797,7.941
393.0,6190703.95,-1.6,1.6,2.9,4.0,2.297,2.296,8.79,7.934
397.0,6251451.232,-1.6,1.6,2.9,4.0,2.292,2.29,8.776,7.909
401.0,6312202.589,-1.6,1.6,2.9,4.0,2.298,2.283,8.795,7.892
405.0,6366085.302,-1.6,1.6,2.9,4.0,1.701,1.706,6.407,5.769
409.0,6427162.244,-1.6,1.6,2.9,4.0,2.288,2.293,8.761,7.922
413.0,6488050.165,-1.6,1.6,2.9,5.334,2.285,2.286,8.765,7.896
417.0,6548979.014,-1.6,1.6,2.9,4.0,2.273,2.267,8.713,7.824
421.0,6610001.684,-1.6,1.6,2.9,4.0,2.273,2.27,8.712,7.835
425.0,6671058.058,-1.6,1.6,2.9,4.0,2.269,2.275,8.697,7.855
429.0,6724945.876,-1.6,1.6,2.9,4.0,2.269,2.264,8.699,7.81
433.0,6785875.43,-1.6,1.6,2.9,4.0,2.263,2.26,8.678,7.797
437.0,6846953.47,-1.6,1.6,2.9,4.0,2.263,2.258,8.678,7.787
441.0,6907968.01,-1.6,1.6,2.9,4.0,2.252,2.255,8.642,7.773
445.0,6968956.169,-1.6,1.6,2.9,4.0,2.26,2.256,8.669,7.781
449.0,7030133.666,-1.6,1.6,2.9,4.0,2.268,2.267,8.694,7.823
453.0,7076669.689,-1.6,1.6,2.9,4.0,1.624,1.632,6.131,5.499
457.0,7137886.703,-1.6,1.6,2.9,4.0,2.26,2.254,8.668,7.774
461.0,7198941.776,-1.6,1.6,2.9,4.0,2.259,2.252,8.665,7.766
465.0,7259968.703,-1.6,1.6,2.9,4.0,2.257,2.26,8.657,7.801
469.0,7320839.604,-1.6,1.6,2.9,4.0,2.256,2.251,8.652,7.764
473.0,7374695.732,-1.6,1.6,2.9,4.0,2.25,2.25,8.632,7.759
477.0,7428465.027,-1.6,1.6,2.9,4.0,1.638,1.641,6.182,5.532
481.0,7489566.18,-1.6,1.6,2.9,4.0,2.247,2.247,8.623,7.748
485.0,7550374.33,-1.6,1.6,2.9,4.0,2.248,2.252,8.629,7.767
489.0,7611204.042,-1.6,1.6,2.9,4.0,2.249,2.249,8.627,7.755
493.0,7672037.64,-1.6,1.6,2.9,4.0,2.248,2.239,8.626,7.722
497.0,7718428.584,-1.6,1.6,2.9,4.0,1.633,1.634,6.169,5.508
501.0,7772213.404,-1.6,1.6,2.9,4.0,2.253,2.245,8.649,7.737
505.0,7833243.33,-1.6,1.6,2.9,4.0,2.243,2.241,8.608,7.726
509.0,7894314.351,-1.6,1.6,2.9,4.0,2.241,2.238,8.601,7.714
513.0,7955272.832,-1.6,1.6,2.9,4.0,2.24,2.236,8.596,7.708
517.0,8016278.548,-1.6,1.6,2.9,4.0,2.238,2.231,8.59,7.69
521.0,8069883.747,-1.6,1.6,2.9,4.0,2.241,2.237,8.602,7.715
525.0,8130657.35,-1.6,1.6,2.9,4.0,2.237,2.236,8.589,7.712
529.0,8184343.122,-1.6,1.6,2.9,4.0,2.239,2.238,8.593,7.716
533.0,8237939.265,-1.6,1.6,2.9,4.0,2.228,2.221,8.557,7.651
537.0,8298836.828,-1.6,1.6,2.9,4.0,2.21,2.211,8.498,7.615
541.0,8359829.974,-1.6,1.6,2.898,4.0,2.213,2.206,8.506,7.593
545.0,8413350.566,-1.6,1.6,2.9,4.0,2.22,2.218,8.531,7.637
549.0,8474252.06,-1.6,1.6,2.9,4.0,2.204,2.213,8.476,7.624
553.0,8535208.009,-1.6,1.6,2.9,4.0,2.236,2.209,8.584,7.606
557.0,8596093.756,-1.6,1.6,2.9,4.0,2.217,2.215,8.518,7.632
561.0,8656911.311,-1.6,1.6,2.9,4.0,2.217,2.214,8.518,7.627
565.0,8717671.747,-1.6,1.6,2.9,4.0,2.215,2.211,8.509,7.614
569.0,8778441.573,-1.6,1.6,2.9,4.0,2.213,2.21,8.505,7.612
573.0,8839193.301,-1.6,1.6,2.9,4.0,2.213,2.203,8.504,7.586
577.0,8899786.127,-1.6,1.6,2.9,4.0,2.202,2.2,8.468,7.576
581.0,8960648.03,-1.6,1.6,2.9,4.0,2.207,2.204,8.484,7.59
585.0,9021291.201,-1.6,1.6,2.9,4.0,2.205,2.199,8.477,7.576
589.0,9081967.059,-1.6,1.6,2.9,4.0,2.203,2.2,8.471,7.573
593.0,9135167.604,-1.6,1.6,2.9,4.0,2.212,2.165,8.507,7.437
597.0,9196137.062,-1.6,1.6,2.9,4.0,2.167,2.189,8.346,7.533
601.0,9256998.222,-1.6,1.6,2.9,4.0,2.195,2.186,8.444,7.524
605.0,9317854.938,-1.6,1.6,2.9,4.0,2.193,2.195,8.436,7.556
609.0,9378690.51,-1.6,1.6,2.9,4.0,2.192,2.191,8.435,7.539
613.0,9439416.606,-1.6,1.6,2.9,4.0,2.192,2.191,8.433,7.544
617.0,9500246.961,-1.6,1.6,2.9,4.0,2.193,2.191,8.436,7.54
621.0,9560816.04,-1.6,1.6,2.9,4.0,2.194,2.191,8.436,7.541
625.0,9621340.237,-1.6,1.6,2.9,4.0,2.194,2.186,8.441,7.525
629.0,9674303.244,-1.6,1.6,2.9,4.0,1.548,1.569,5.86,5.274
633.0,9734929.046,-1.6,1.6,2.9,4.0,2.186,2.186,8.41,7.524
637.0,9795486.911,-1.6,1.6,2.9,4.0,2.18,2.182,8.39,7.509
641.0,9856132.6,-1.6,1.6,2.9,4.0,2.186,2.175,8.412,7.486
645.0,9916904.385,-1.6,1.6,2.9,4.0,2.172,2.17,8.364,7.465
649.0,9977745.865,-1.6,1.6,2.9,4.0,2.173,2.176,8.366,7.487
652.0,10018699.325,-1.6,1.6,3.408,4.0,2.178,0.269,8.384,1.016