File: Li-ion_Batteries/UL-PUR_R20-NA9_18650_NCA_23C_2.5-96.5_0.5-0.5C_i_cycle_data.csv
Cycle_Index,Test_Time (s),Min_Current (A),Max_Current (A),Min_Voltage (V),Max_Voltage (V),Charge_Capacity (Ah),Discharge_Capacity (Ah),Charge_Energy (Wh),Discharge_Energy (Wh)
1.0,63364.095,-1.61,1.599,2.9,4.164,0.002,3.088,0.008,10.987
5.0,119137.008,-1.6,1.6,2.9,4.0,2.522,2.521,9.572,8.807
9.0,180538.481,-1.6,1.6,2.9,4.0,2.517,2.518,9.553,8.794
13.0,236236.529,-1.6,1.6,2.9,4.0,2.516,2.509,9.55,8.759
17.0,297667.729,-1.6,1.6,2.9,4.0,2.51,2.505,9.53,8.742
21.0,359052.593,-1.601,1.6,2.9,4.0,2.506,2.503,9.514,8.736
25.0,420455.391,-1.6,1.6,2.9,4.0,2.501,2.516,9.496,8.781
29.0,481785.898,-1.6,1.6,2.9,4.0,2.498,2.5,9.487,8.72
33.0,543119.083,-1.6,1.6,2.9,4.0,2.498,2.491,9.487,8.689
37.0,604498.724,-1.6,1.6,2.9,4.0,2.493,2.486,9.471,8.668
41.0,659999.409,-1.6,1.6,2.9,4.0,2.489,2.481,9.458,8.65
45.0,721416.952,-1.6,1.6,2.9,4.0,2.484,2.484,9.442,8.658
49.0,782842.357,-1.6,1.6,2.9,4.0,2.48,2.481,9.43,8.643
53.0,838372.237,-1.6,1.6,2.9,4.0,2.484,2.476,9.444,8.625
57.0,893832.573,-1.6,1.6,2.9,4.0,1.931,1.931,7.237,6.594
61.0,949428.271,-1.6,1.6,2.9,4.0,2.473,2.467,9.408,8.59
65.0,1011046.278,-1.6,1.6,2.9,4.0,2.465,2.464,9.379,8.577
69.0,1066578.011,-1.6,1.6,2.9,4.0,2.465,2.457,9.38,8.551
73.0,1128348.246,-1.6,1.6,2.9,4.0,2.457,2.456,9.354,8.544
77.0,1190128.246,-1.6,1.6,2.9,4.0,2.455,2.451,9.346,8.526
81.0,1251946.174,-1.6,1.6,2.9,4.0,2.449,2.448,9.325,8.515
85.0,1313748.483,-1.6,1.6,2.9,4.0,2.449,2.444,9.325,8.5
89.0,1362985.825,-1.6,1.6,2.9,4.0,2.452,2.447,9.34,8.508
93.0,1424956.449,-1.6,1.6,2.9,4.0,2.438,2.444,9.291,8.494
97.0,1486943.029,-1.6,1.6,2.9,4.0,2.436,2.437,9.283,8.47
101.0,1542530.396,-1.6,1.6,2.9,4.0,1.872,1.879,7.024,6.399
105.0,1604693.959,-1.6,1.6,2.9,4.0,2.433,2.436,9.27,8.464
109.0,1666880.941,-1.6,1.6,2.9,4.0,2.43,2.427,9.263,8.432
113.0,1728930.466,-1.6,1.6,2.9,4.0,2.428,2.428,9.256,8.431
117.0,1784550.17,-1.6,1.6,2.9,4.0,2.427,2.431,9.253,8.443
121.0,1846761.226,-1.6,1.6,2.9,4.0,2.423,2.419,9.239,8.398
125.0,1908999.024,-1.6,1.6,2.9,4.0,2.427,2.42,9.251,8.403
129.0,1971310.268,-1.6,1.6,2.9,4.0,2.419,2.411,9.224,8.371
133.0,2033664.019,-1.6,1.6,2.9,4.0,2.413,2.417,9.205,8.393
137.0,2095924.895,-1.6,1.6,2.9,4.0,2.411,2.408,9.196,8.356
141.0,2158168.171,-1.6,1.6,2.9,4.0,2.422,2.407,9.231,8.355
145.0,2220481.824,-1.6,1.6,2.9,4.0,2.404,2.413,9.173,8.374
149.0,2282808.245,-1.6,1.6,2.9,4.0,2.402,2.402,9.166,8.333
153.0,2345072.333,-1.6,1.6,2.9,4.0,2.402,2.4,9.164,8.323
157.0,2407448.912,-1.6,1.6,2.9,4.0,2.413,2.41,9.201,8.363
161.0,2456310.373,-1.601,1.6,2.9,4.0,1.805,1.813,6.779,6.155
165.0,2519035.383,-1.6,1.6,2.9,4.0,2.389,2.386,9.121,8.27
169.0,2581655.645,-1.6,1.6,2.9,4.0,2.388,2.384,9.116,8.265
173.0,2644218.751,-1.6,1.6,2.9,4.0,2.383,2.388,9.098,8.281
177.0,2706728.594,-1.6,1.6,2.9,4.0,2.38,2.373,9.088,8.225
181.0,2769243.12,-1.6,1.6,2.9,4.0,2.391,2.388,9.125,8.283
185.0,2825007.261,-1.6,1.6,2.9,4.0,2.378,2.383,9.082,8.259
189.0,2887536.614,-1.6,1.6,2.9,4.0,2.38,2.366,9.09,8.196
193.0,2950136.367,-1.6,1.6,2.9,4.0,2.362,2.357,9.027,8.165
197.0,3012778.595,-1.6,1.6,2.9,4.0,2.371,2.362,9.058,8.184
201.0,3075295.956,-1.6,1.6,2.9,4.0,2.361,2.357,9.025,8.164
205.0,3137952.635,-1.6,1.6,2.9,4.0,2.351,2.353,8.99,8.152
209.0,3200635.779,-1.6,1.6,2.9,4.0,2.37,2.365,9.053,8.195
213.0,3263231.617,-1.6,1.6,2.9,4.0,2.37,2.364,9.051,8.192
217.0,3325801.856,-1.6,1.6,2.9,4.0,2.361,2.357,9.021,8.167
221.0,3381167.029,-1.6,1.6,2.9,4.0,1.742,1.75,6.55,5.931
225.0,3443975.567,-1.6,1.6,2.9,4.0,2.345,2.343,8.969,8.116
229.0,3506628.589,-1.6,1.6,2.9,4.0,2.337,2.339,8.938,8.099
233.0,3562164.994,-1.6,1.6,2.9,4.0,2.341,2.337,8.954,8.091
237.0,3624837.03,-1.6,1.6,2.9,4.0,2.337,2.343,8.94,8.111
241.0,3680274.022,-1.6,1.6,2.9,4.0,2.336,2.337,8.936,8.09
245.0,3742914.534,-1.6,1.6,2.9,4.0,2.337,2.332,8.939,8.075
249.0,3805621.126,-1.6,1.6,2.9,4.0,2.334,2.335,8.928,8.087
253.0,3860808.21,-1.6,1.6,2.9,4.0,1.694,1.711,6.38,5.792
257.0,3923650.591,-1.601,1.6,2.9,4.0,2.327,2.33,8.903,8.067
261.0,3975161.744,-1.6,1.6,2.9,3.999,0.859,0.899,3.131,2.944
265.0,4037997.327,-1.6,1.6,2.9,4.0,2.323,2.322,8.89,8.037
269.0,4100652.619,-1.6,1.6,2.9,4.0,2.297,2.296,8.803,7.937
273.0,4163363.922,-1.6,1.6,2.9,4.0,2.3,2.293,8.811,7.928
277.0,4226042.578,-1.6,1.6,2.9,4.0,2.297,2.291,8.801,7.922
281.0,4288730.0,-1.6,1.6,2.9,4.0,2.286,2.287,8.764,7.908
285.0,4351436.6,-1.6,1.6,2.9,4.0,2.274,2.268,8.725,7.838
289.0,4414167.6,-1.6,1.6,2.9,4.0,2.278,2.274,8.737,7.859
293.0,4476905.239,-1.6,1.6,2.9,4.0,2.284,2.29,8.755,7.918
297.0,4539573.793,-1.6,1.6,2.9,4.0,2.279,2.283,8.738,7.893
301.0,4602183.492,-1.6,1.6,2.9,4.0,2.283,2.271,8.751,7.848
305.0,4664887.201,-1.6,1.6,2.9,4.0,2.279,2.273,8.739,7.857
309.0,4719961.426,-1.6,1.6,2.9,4.0,1.641,1.659,6.185,5.607
313.0,4782733.742,-1.6,1.6,2.9,4.0,2.278,2.274,8.734,7.859
317.0,4845382.235,-1.6,1.6,2.9,4.0,2.276,2.271,8.728,7.85
321.0,4908012.001,-1.6,1.6,2.9,4.0,2.268,2.265,8.699,7.829
325.0,4962920.454,-1.6,1.6,2.9,4.0,1.624,1.643,6.126,5.55
329.0,5025746.488,-1.6,1.6,2.9,4.0,2.263,2.261,8.681,7.814
333.0,5088326.657,-1.6,1.6,2.9,4.0,2.263,2.265,8.685,7.83
337.0,5150899.732,-1.6,1.6,2.9,4.0,2.26,2.261,8.671,7.814
341.0,5206035.179,-1.6,1.6,2.9,4.0,2.258,2.252,8.664,7.778
345.0,5268660.156,-1.6,1.6,2.9,4.0,2.254,2.254,8.649,7.787
349.0,5331302.822,-1.6,1.6,2.9,4.0,2.256,2.249,8.656,7.771
353.0,5393855.326,-1.6,1.6,2.9,4.0,2.252,2.246,8.641,7.759
357.0,5448710.8,-1.6,1.6,2.9,4.0,2.245,2.247,8.619,7.761
361.0,5511284.474,-1.6,1.6,2.9,4.0,2.241,2.236,8.604,7.719
365.0,5573892.431,-1.6,1.6,2.9,4.0,2.24,2.235,8.6,7.72
369.0,5636483.601,-1.6,1.6,2.9,4.0,2.24,2.239,8.601,7.736
373.0,5691395.976,-1.6,1.6,2.9,4.0,2.263,2.237,8.689,7.725
377.0,5753868.087,-1.6,1.6,2.9,4.0,2.24,2.234,8.6,7.713
381.0,5808736.806,-1.6,1.6,2.9,4.0,2.216,2.21,8.519,7.622
385.0,5871415.334,-1.6,1.6,2.9,4.0,2.222,2.213,8.538,7.638
389.0,5934147.613,-1.6,1.6,2.9,4.0,2.219,2.216,8.528,7.65
393.0,5996426.674,-1.6,1.6,2.854,4.0,2.204,2.198,8.477,7.579
397.0,6051125.24,-1.6,1.6,2.9,4.0,2.213,2.203,8.505,7.601
401.0,6113620.356,-1.6,1.6,2.9,4.0,2.209,2.206,8.492,7.611
405.0,6176206.745,-1.6,1.6,2.9,4.0,2.202,2.205,8.469,7.605
409.0,6230745.319,-1.6,1.6,2.898,4.0,1.554,1.582,5.87,5.331
413.0,6285680.353,-1.6,1.6,2.9,4.0,2.204,2.202,8.476,7.596
417.0,6340385.291,-1.6,1.6,2.9,4.0,2.198,2.197,8.454,7.578
421.0,6402805.418,-1.6,1.6,2.9,4.0,2.194,2.194,8.439,7.566
425.0,6465354.48,-1.6,1.6,2.9,4.0,2.195,2.191,8.442,7.555
429.0,6519848.22,-1.6,1.6,2.9,4.0,1.537,1.567,5.808,5.277
433.0,6582379.746,-1.6,1.6,2.9,4.0,2.185,2.192,8.408,7.561
437.0,6636699.178,-1.6,1.6,2.9,4.0,1.516,1.544,5.733,5.196
441.0,6699433.229,-1.6,1.6,2.9,4.0,2.158,2.146,8.313,7.387
445.0,6762195.1,-1.6,1.6,2.9,4.0,2.175,2.173,8.372,7.491
449.0,6824729.113,-1.6,1.6,2.9,4.0,2.168,2.167,8.347,7.469
453.0,6887150.16,-1.6,1.6,2.9,4.0,2.167,2.163,8.347,7.451
457.0,6949562.528,-1.6,1.6,2.9,4.0,2.172,2.17,8.361,7.48
461.0,7011915.49,-1.6,1.6,2.9,4.0,2.175,2.172,8.372,7.489
465.0,7074260.915,-1.6,1.6,2.9,4.0,2.173,2.175,8.364,7.5
469.0,7136567.179,-1.6,1.6,2.9,4.0,2.174,2.17,8.366,7.482
473.0,7198689.77,-1.6,1.6,2.9,4.0,2.168,2.165,8.348,7.464
477.0,7260951.07,-1.6,1.6,2.9,4.0,2.17,2.168,8.352,7.472
481.0,7323106.811,-1.6,1.6,2.9,4.0,2.159,2.158,8.316,7.437
485.0,7385226.813,-1.6,1.6,2.9,4.001,2.167,2.167,8.344,7.472
489.0,7447355.792,-1.6,1.6,2.9,4.0,2.155,2.152,8.3,7.415
493.0,7509479.039,-1.6,1.6,2.9,4.0,2.148,2.155,8.278,7.428
497.0,7563636.67,-1.6,1.6,2.9,4.0,2.157,2.149,8.308,7.402
501.0,7625902.191,-1.6,1.6,2.9,4.0,2.136,2.137,8.236,7.36
505.0,7688184.212,-1.6,1.6,2.9,4.0,2.155,2.148,8.299,7.402
509.0,7750351.714,-1.6,1.6,2.9,4.0,2.144,2.143,8.262,7.382
513.0,7812524.101,-1.6,1.6,2.9,4.0,2.145,2.142,8.267,7.381
517.0,7866297.307,-1.6,1.6,2.9,4.0,1.467,1.494,5.555,5.023
521.0,7928760.894,-1.6,1.6,2.9,4.0,2.117,2.112,8.168,7.267
525.0,7991148.845,-1.6,1.6,2.9,4.0,2.1,2.102,8.109,7.228
529.0,8053548.83,-1.6,1.602,2.9,4.0,2.091,2.094,8.079,7.198
533.0,8107534.121,-1.6,1.6,2.9,4.0,2.129,2.087,8.223,7.173
537.0,8169920.681,-1.6,1.6,2.9,4.0,2.075,2.092,8.023,7.191
541.0,8232052.658,-1.6,1.6,2.9,4.0,2.108,2.103,8.137,7.237
545.0,8294223.832,-1.6,1.6,2.9,4.0,2.114,2.12,8.155,7.299
549.0,8356199.425,-1.6,1.6,2.9,4.0,2.108,2.103,8.134,7.236
553.0,8418365.212,-1.6,1.6,2.9,4.0,2.079,2.082,8.035,7.154
557.0,8480336.198,-1.6,1.6,2.9,4.0,2.091,2.087,8.076,7.177
561.0,8542422.135,-1.6,1.6,2.9,4.0,2.094,2.095,8.086,7.207
565.0,8604360.114,-1.6,1.6,2.9,4.0,2.099,2.097,8.103,7.216
569.0,8666315.868,-1.6,1.6,2.9,4.0,2.081,2.072,8.039,7.121
573.0,8728443.531,-1.6,1.6,2.9,4.0,2.089,2.083,8.07,7.163
577.0,8790351.554,-1.6,1.6,2.9,4.0,2.088,2.087,8.065,7.177
581.0,8852304.942,-1.6,1.6,2.9,4.0,2.097,2.097,8.095,7.216
585.0,8905679.247,-1.6,1.6,2.9,4.0,1.415,1.449,5.369,4.864
589.0,8967872.64,-1.6,1.6,2.9,4.0,2.088,2.078,8.065,7.146
593.0,9029607.5,-1.6,1.6,2.9,4.0,2.079,2.079,8.033,7.15
597.0,9091474.124,-1.6,1.6,2.9,4.0,2.055,2.049,7.945,7.037
601.0,9145041.493,-1.6,1.6,2.9,4.0,2.06,2.055,7.965,7.06
605.0,9206976.523,-1.6,1.6,2.9,4.0,2.05,2.057,7.931,7.069
609.0,9268786.592,-1.6,1.6,2.9,4.0,2.053,2.046,7.942,7.027
613.0,9330611.171,-1.6,1.6,2.9,4.0,2.057,2.056,7.954,7.067
617.0,9383728.385,-1.6,1.6,2.9,4.0,1.352,1.394,5.138,4.672
621.0,9437420.097,-1.6,1.6,2.9,4.0,2.055,2.053,7.948,7.053
625.0,9490852.745,-1.6,1.6,2.9,4.0,2.045,2.041,7.911,7.01
629.0,9552561.346,-1.6,1.6,2.899,4.0,2.042,2.046,7.899,7.026
633.0,9614250.658,-1.6,1.6,2.9,4.0,2.047,2.042,7.918,7.016
637.0,9675882.839,-1.6,1.6,2.9,4.0,2.033,2.034,7.87,6.985
641.0,9737492.523,-1.6,1.6,2.9,4.0,2.03,2.027,7.858,6.959
645.0,9790379.946,-1.6,1.6,2.9,4.0,1.34,1.378,5.092,4.615
649.0,9838692.373,1.599,1.6,3.415,3.851,0.841,0.0,3.132,0.0