File: Li-ion_Batteries/UL-PUR_R20-NA7_18650_NCA_23C_2.5-96.5_0.5-0.5C_g_cycle_data.csv
Cycle_Index,Test_Time (s),Min_Current (A),Max_Current (A),Min_Voltage (V),Max_Voltage (V),Charge_Capacity (Ah),Discharge_Capacity (Ah),Charge_Energy (Wh),Discharge_Energy (Wh)
1.0,16001.85,-1.133,1.134,2.9,4.0,0.895,2.705,3.522,9.433
6.0,124480.97,-1.133,1.134,2.9,4.0,2.703,2.703,10.109,9.433
11.0,232842.191,-1.133,1.134,2.9,4.0,2.7,2.701,10.1,9.42
16.0,341173.662,-1.133,1.134,2.9,4.0,2.699,2.699,10.097,9.41
21.0,449791.904,-1.133,1.134,2.9,4.0,2.695,2.695,10.083,9.391
26.0,557748.806,-1.133,1.134,2.9,4.0,2.694,2.695,10.078,9.397
31.0,665458.532,-1.133,1.134,2.9,4.001,2.694,2.694,10.072,9.398
36.0,773757.064,-1.133,1.134,2.9,4.0,2.688,2.689,10.058,9.368
41.0,871629.206,-1.133,1.134,2.9,4.0,2.686,2.687,10.052,9.359
46.0,974676.781,-1.133,1.134,2.9,4.0,2.685,2.686,10.049,9.356
51.0,1074774.493,-1.6,1.6,2.9,4.0,2.683,2.684,10.126,9.241
56.0,1160310.405,-1.6,1.6,2.9,4.0,2.682,2.678,10.125,9.213
61.0,1237059.852,-1.6,1.6,2.9,4.0,2.491,2.483,9.449,8.646
66.0,1313340.213,-1.6,1.6,2.9,4.0,2.499,2.488,9.481,8.652
71.0,1389562.063,-1.6,1.6,2.9,4.0,2.492,2.479,9.456,8.623
76.0,1465748.469,-1.6,1.6,2.9,4.0,2.484,2.488,9.428,8.651
81.0,1541981.378,-1.6,1.6,2.9,4.0,2.48,2.478,9.415,8.618
86.0,1612451.353,-1.6,1.6,2.9,4.0,2.477,2.474,9.406,8.602
91.0,1682891.957,-1.6,1.6,2.9,4.0,2.47,2.472,9.385,8.591
96.0,1759126.103,-1.6,1.6,2.9,4.001,2.45,2.489,9.306,8.652
101.0,1835374.408,-1.6,1.6,2.9,4.0,2.492,2.48,9.453,8.62
106.0,1905208.859,-1.6,1.6,2.9,4.0,2.404,2.44,9.17,8.468
111.0,1981574.381,-1.6,1.6,2.9,4.0,2.458,2.448,9.341,8.5
116.0,2057994.26,-1.6,1.6,2.9,4.0,2.437,2.432,9.273,8.44
121.0,2134479.833,-1.611,1.6,2.896,4.0,2.442,2.452,9.29,8.517
126.0,2204720.475,-1.6,1.6,2.9,4.0,1.9,1.896,7.119,6.454
131.0,2281272.676,-1.6,1.6,2.9,4.0,2.432,2.437,9.257,8.457
136.0,2357849.403,-1.6,1.6,2.9,4.0,2.422,2.421,9.222,8.4
141.0,2434340.929,-1.6,1.6,2.9,4.0,2.422,2.421,9.222,8.399
146.0,2510702.251,-1.6,1.6,2.9,4.0,2.416,2.415,9.202,8.377
151.0,2587278.217,-1.6,1.6,2.9,4.0,2.41,2.413,9.183,8.369
156.0,2657556.854,-1.6,1.6,2.9,4.0,2.401,2.4,9.152,8.319
161.0,2734188.971,-1.6,1.6,2.9,4.0,2.399,2.394,9.147,8.297
166.0,2810780.599,-1.6,1.6,2.9,4.0,2.392,2.393,9.125,8.293
171.0,2881046.525,-1.6,1.6,2.9,4.0,2.386,2.404,9.104,8.334
176.0,2951366.804,-1.6,1.6,2.9,4.0,2.386,2.381,9.104,8.25
181.0,3021569.439,-1.6,1.6,2.9,4.0,2.394,2.388,9.131,8.27
186.0,3098471.477,-1.639,1.6,2.895,4.0,2.373,2.377,9.06,8.233
191.0,3175218.893,-1.6,1.6,2.9,4.0,2.374,2.372,9.062,8.215
196.0,3251974.384,-1.6,1.6,2.9,4.0,2.382,2.386,9.088,8.266
201.0,3328688.518,-1.6,1.6,2.9,4.0,2.378,2.376,9.075,8.23
206.0,3398864.337,-1.6,1.6,2.9,4.0,2.372,2.369,9.054,8.203
211.0,3475663.336,-1.6,1.6,2.9,4.0,2.37,2.368,9.049,8.198
216.0,3552442.629,-1.6,1.6,2.9,4.0,2.367,2.364,9.037,8.185
221.0,3629227.635,-1.6,1.6,2.9,4.0,2.365,2.36,9.031,8.168
226.0,3705846.795,-1.6,1.6,2.9,4.0,2.357,2.357,9.005,8.159
231.0,3782613.207,-1.6,1.6,2.9,4.0,2.357,2.355,9.003,8.15
236.0,3859352.048,-1.6,1.6,2.9,4.0,2.35,2.353,8.98,8.145
241.0,3936087.404,-1.6,1.6,2.9,4.0,2.351,2.349,8.983,8.127
246.0,4012750.634,-1.6,1.6,2.9,4.0,2.352,2.345,8.984,8.116
251.0,4082777.767,-1.6,1.6,2.9,4.0,2.349,2.352,8.975,8.143
256.0,4159595.876,-1.6,1.6,2.9,4.0,2.342,2.342,8.95,8.102
261.0,4236363.64,-1.6,1.6,2.9,4.0,2.343,2.349,8.955,8.131
266.0,4312995.636,-1.6,1.6,2.9,4.0,2.336,2.333,8.932,8.069
271.0,4382945.786,-1.6,1.6,2.9,4.0,2.346,2.342,8.963,8.104
276.0,4459709.382,-1.6,1.6,2.9,4.0,2.341,2.34,8.948,8.098
281.0,4536435.482,-1.6,1.6,2.9,4.0,2.334,2.332,8.921,8.066
286.0,4613166.421,-1.6,1.6,2.9,4.0,2.349,2.339,8.972,8.096
291.0,4689934.044,-1.6,1.6,2.9,4.0,2.341,2.338,8.945,8.091
296.0,4766552.728,-1.6,1.6,2.9,4.0,2.333,2.321,8.916,8.027
301.0,4843281.702,-1.6,1.6,2.9,4.0,2.313,2.328,8.854,8.05
306.0,4919889.814,-1.6,1.6,2.9,4.0,2.327,2.322,8.896,8.029
311.0,4989649.533,-1.6,1.6,2.9,4.0,2.319,2.32,8.869,8.024
316.0,5066255.04,-1.6,1.6,2.9,4.0,2.314,2.31,8.853,7.986
321.0,5142798.287,-1.6,1.6,2.9,4.0,2.326,2.315,8.893,8.006
326.0,5219352.009,-1.6,1.6,2.9,4.0,2.325,2.321,8.89,8.029
331.0,5288976.43,-1.6,1.6,2.9,4.0,2.316,2.32,8.859,8.021
336.0,5365403.505,-1.6,1.6,2.9,4.0,2.295,2.283,8.789,7.886
341.0,5442045.431,-1.6,1.6,2.9,4.0,2.305,2.307,8.822,7.978
346.0,5518571.405,-1.6,1.6,2.9,4.0,2.299,2.299,8.802,7.948
351.0,5595158.186,-1.6,1.6,2.9,4.0,2.292,2.296,8.777,7.934
356.0,5671699.523,-1.6,1.6,2.9,4.0,2.304,2.302,8.816,7.958
361.0,5748164.205,-1.6,1.6,2.9,4.0,2.304,2.305,8.815,7.972
366.0,5824502.856,-1.6,1.6,2.9,4.0,2.301,2.293,8.805,7.924
371.0,5901004.685,-1.6,1.6,2.9,4.0,2.284,2.291,8.751,7.915
376.0,5977545.581,-1.6,1.6,2.9,4.0,2.286,2.287,8.755,7.904
381.0,6053982.434,-1.6,1.869,2.9,4.0,2.272,2.284,8.69,7.89
386.0,6129737.223,-1.6,1.6,2.9,4.0,2.285,2.285,8.752,7.893
391.0,6206089.017,-1.6,1.6,2.9,4.0,2.284,2.281,8.746,7.882
396.0,6282435.183,-1.6,1.6,2.9,4.0,2.286,2.282,8.755,7.886
401.0,6351599.397,-1.6,1.6,2.9,4.0,2.278,2.281,8.727,7.878
406.0,6427981.409,-1.6,1.6,2.9,4.0,2.273,2.277,8.711,7.867
411.0,6503887.139,-1.6,1.6,2.9,4.0,2.27,2.269,8.701,7.835
416.0,6580345.742,-1.6,1.6,2.9,4.0,2.255,2.254,8.649,7.778
421.0,6656794.398,-1.6,1.6,2.9,4.0,2.247,2.251,8.624,7.767
426.0,6733098.742,-1.606,1.6,2.896,4.0,2.249,2.245,8.629,7.744
431.0,6809539.86,-1.6,1.6,2.9,4.0,2.242,2.238,8.606,7.718
436.0,6878633.183,-1.6,1.6,2.9,4.0,1.616,1.624,6.101,5.477
441.0,6947893.495,-1.6,1.6,2.9,4.0,2.253,2.24,8.647,7.726
446.0,7024407.066,-1.6,1.6,2.9,4.0,2.246,2.247,8.616,7.752
451.0,7100825.088,-1.6,1.6,2.9,4.0,2.232,2.235,8.57,7.71
456.0,7177264.357,-1.6,1.6,2.9,4.0,2.233,2.232,8.574,7.703
461.0,7253596.505,-1.6,1.6,2.9,4.0,2.237,2.234,8.587,7.703
466.0,7329856.007,-1.6,1.6,2.9,4.0,2.236,2.231,8.581,7.697
471.0,7406270.992,-1.6,1.6,2.9,4.0,2.232,2.23,8.568,7.694
476.0,7482630.012,-1.6,1.6,2.9,4.0,2.226,2.227,8.547,7.681
481.0,7559089.44,-1.6,1.6,2.9,4.0,2.235,2.23,8.581,7.693
486.0,7635432.336,-1.6,1.6,2.9,4.081,2.225,2.221,8.546,7.66
491.0,7711699.939,-1.6,1.6,2.9,4.0,2.228,2.223,8.553,7.663
496.0,7787922.19,-1.6,1.6,2.9,4.0,2.226,2.223,8.545,7.668
501.0,7864191.926,-1.6,1.6,2.9,4.0,2.219,2.217,8.523,7.645
506.0,7940429.975,-1.6,1.6,2.9,4.0,2.226,2.216,8.547,7.638
511.0,8016640.884,-1.6,1.6,2.9,4.0,2.215,2.211,8.511,7.624
516.0,8092747.599,-1.6,1.6,2.9,4.0,2.217,2.216,8.515,7.64
521.0,8168879.712,-1.6,1.6,2.9,4.0,2.214,2.214,8.505,7.634
526.0,8244942.64,-1.6,1.6,2.9,4.0,2.206,2.197,8.477,7.571
531.0,8321218.551,-1.6,1.6,2.9,4.0,2.197,2.199,8.447,7.578
536.0,8397474.788,-1.6,1.6,2.9,4.0,2.195,2.198,8.442,7.574
541.0,8473655.09,-1.6,1.6,2.9,4.0,2.183,2.194,8.4,7.559
546.0,8549813.674,-1.6,1.6,2.9,4.0,2.192,2.195,8.429,7.562
551.0,8625855.965,-1.6,1.6,2.9,4.0,2.197,2.193,8.446,7.556
556.0,8701901.76,-1.6,1.6,2.9,4.0,2.196,2.193,8.442,7.556
561.0,8777984.426,-1.6,1.6,2.9,4.0,2.191,2.191,8.424,7.548
566.0,8853968.014,-1.6,1.6,2.9,4.0,2.184,2.18,8.402,7.506
571.0,8930085.9,-1.6,1.6,2.9,4.0,2.185,2.179,8.406,7.506
576.0,9006081.098,-1.6,1.6,2.9,4.0,2.185,2.18,8.405,7.507
581.0,9082077.296,-1.6,1.6,2.9,4.0,2.179,2.18,8.386,7.507
586.0,9158218.378,-1.6,1.6,2.9,4.0,2.146,2.145,8.271,7.377
591.0,9234644.419,-1.6,1.6,2.9,4.0,2.174,2.174,8.367,7.487
596.0,9279856.735,-1.6,1.6,2.9,4.0,1.516,1.517,5.743,5.091
601.0,9356154.55,-1.6,1.6,2.9,4.0,2.154,2.165,8.3,7.452
606.0,9432173.56,-1.6,1.6,2.9,4.001,2.174,2.177,8.368,7.494
611.0,9500692.995,-1.6,1.6,2.9,4.0,2.17,2.168,8.351,7.462
616.0,9576593.558,-1.6,1.6,2.9,4.001,2.167,2.165,8.341,7.454
621.0,9652620.579,-1.609,1.6,2.895,4.0,2.164,2.163,8.332,7.447
626.0,9720867.169,-1.6,1.6,2.9,4.0,2.179,2.158,8.393,7.428
631.0,9796845.649,-1.6,1.6,2.9,4.0,2.155,2.157,8.3,7.424
636.0,9872796.001,-1.6,1.6,2.9,4.0,2.151,2.15,8.286,7.397
641.0,9948854.59,-1.6,1.6,2.9,4.0,2.138,2.134,8.243,7.336
646.0,10017252.256,-1.6,1.6,2.9,4.001,2.15,2.147,8.283,7.389
651.0,10093260.4,-1.6,1.6,2.9,4.0,2.129,2.131,8.211,7.327
656.0,10161530.111,-1.6,1.6,2.9,4.0,2.166,2.142,8.349,7.368
661.0,10229717.525,-1.6,1.6,2.9,4.0,1.488,1.508,5.638,5.062
666.0,10305704.989,-1.6,1.6,2.9,4.0,2.128,2.134,8.209,7.34
671.0,10381853.392,-1.6,1.6,2.9,4.0,2.111,2.111,8.152,7.251
676.0,10458168.839,-1.6,1.6,2.9,4.0,2.105,2.099,8.129,7.204
681.0,10534100.391,-1.6,1.6,2.814,4.0,2.101,1.882,8.117,6.548
686.0,10609904.89,-1.6,1.6,2.9,4.0,2.084,2.079,8.057,7.127
691.0,10678230.296,-1.6,1.6,2.9,4.0,2.133,2.113,8.236,7.257
696.0,10754353.518,-1.6,1.6,2.9,4.0,2.117,2.124,8.169,7.302
701.0,10830371.053,-1.6,1.6,2.9,4.0,2.107,2.099,8.135,7.207
706.0,10906605.539,-1.6,1.607,2.9,4.0,2.097,2.101,8.1,7.218
711.0,10982919.788,-1.6,1.6,2.9,4.0,2.098,2.097,8.104,7.201
716.0,11058934.18,-1.6,1.6,2.9,4.0,2.107,2.105,8.134,7.233
721.0,11126919.1,-1.6,1.6,2.9,4.0,2.11,2.079,8.156,7.132
726.0,11203167.549,-1.6,1.6,2.9,4.0,2.089,2.085,8.072,7.155
731.0,11279131.339,-1.6,1.6,2.9,4.0,2.098,2.098,8.103,7.205
736.0,11354925.48,-1.6,1.6,2.9,4.0,2.103,2.101,8.121,7.218
741.0,11422805.17,-1.6,1.6,2.9,4.0,2.091,2.088,8.079,7.169
746.0,11490785.141,-1.6,1.6,2.9,4.0,2.086,2.085,8.062,7.157
751.0,11566779.824,-1.6,1.6,2.9,4.0,2.061,2.058,7.977,7.051
756.0,11642907.081,-1.6,1.6,2.9,4.0,2.062,2.058,7.98,7.055
761.0,11719063.621,-1.6,1.6,2.9,4.0,2.07,2.065,8.006,7.082
766.0,11795177.543,-1.6,1.6,2.9,4.0,2.076,2.071,8.026,7.104
771.0,11854534.478,-1.6,1.6,2.9,4.0,1.384,1.395,5.263,4.66
776.0,11930804.15,-1.6,1.6,2.9,4.0,2.074,2.062,8.018,7.074
781.0,12006922.414,-1.6,1.6,2.9,4.0,2.059,2.061,7.967,7.072
786.0,12082776.022,-1.6,1.6,2.9,4.0,2.061,2.058,7.974,7.057
791.0,12150261.135,-1.6,1.6,2.9,4.0,1.35,1.376,5.13,4.589
796.0,12226531.443,-1.6,1.6,2.9,4.0,2.048,2.054,7.928,7.042
801.0,12300716.637,-1.6,1.6,3.279,4.0,2.06,1.529,7.968,5.406