File: Li-ion_Batteries/UL-PUR_N15-OV3_18650_NCA_23C_0-100_0.5-0.5C_c_cycle_data.csv
Cycle_Index,Test_Time (s),Min_Current (A),Max_Current (A),Min_Voltage (V),Max_Voltage (V),Charge_Capacity (Ah),Discharge_Capacity (Ah),Charge_Energy (Wh),Discharge_Energy (Wh)
1.0,9486.796,-1.6,1.599,2.7,4.254,0.05,3.313,0.206,11.659
3.0,42708.815,-1.6,1.6,2.7,4.2,2.816,2.814,10.689,9.733
5.0,81036.039,-1.6,1.6,2.7,4.2,3.289,3.282,12.679,11.552
7.0,119485.988,-1.6,1.6,2.7,4.2,3.283,3.279,12.658,11.535
9.0,158050.416,-1.6,1.6,2.7,4.2,3.28,3.277,12.65,11.52
11.0,196751.657,-1.6,1.6,2.7,4.2,3.279,3.275,12.647,11.505
13.0,235630.289,-1.6,1.623,2.7,4.201,3.277,3.275,12.643,11.498
15.0,269506.7,-1.6,1.6,2.7,4.2,3.277,3.274,12.646,11.488
17.0,308631.827,-1.6,1.6,2.7,4.2,3.275,3.272,12.639,11.476
19.0,342698.257,-1.601,1.6,2.7,4.2,3.276,3.272,12.645,11.468
21.0,382114.914,-1.601,1.6,2.7,4.2,3.273,3.27,12.637,11.454
23.0,416402.324,-1.6,1.6,2.7,4.2,3.273,3.27,12.641,11.449
25.0,456018.408,-1.6,1.6,2.7,4.2,3.271,3.267,12.633,11.43
27.0,495989.117,-1.6,1.6,2.7,4.2,3.269,3.266,12.629,11.418
29.0,536137.446,-1.6,1.6,2.7,4.2,3.266,3.264,12.625,11.401
31.0,576417.215,-1.6,1.6,2.7,4.2,3.265,3.263,12.622,11.395
33.0,616548.28,-1.6,1.6,2.7,4.2,3.267,3.264,12.625,11.403
35.0,656821.006,-1.6,1.6,2.7,4.2,3.265,3.263,12.621,11.387
37.0,697159.708,-1.6,1.6,2.7,4.2,3.265,3.262,12.621,11.385
39.0,737795.508,-1.6,1.6,2.7,4.2,3.261,3.259,12.615,11.363
41.0,778487.844,-1.6,1.6,2.7,4.2,3.261,3.258,12.612,11.356
43.0,819356.786,-1.6,1.6,2.7,4.2,3.258,3.255,12.605,11.335
45.0,854590.943,-1.6,1.6,2.7,4.2,2.757,2.758,10.5,9.417
47.0,895546.003,-1.6,1.6,2.7,4.2,3.257,3.253,12.601,11.323
49.0,936825.624,-1.6,1.6,2.7,4.2,3.254,3.25,12.595,11.299
51.0,978078.66,-1.6,1.6,2.7,4.201,3.254,3.249,12.593,11.293
53.0,1019576.738,-1.6,1.6,2.7,4.2,3.251,3.248,12.588,11.283
55.0,1061344.1,-1.6,1.6,2.7,4.2,3.248,3.243,12.579,11.251
57.0,1103307.398,-1.6,1.6,2.7,4.2,3.244,3.243,12.574,11.253
59.0,1145300.399,-1.6,1.6,2.7,4.2,3.244,3.241,12.569,11.232
61.0,1187201.364,-1.6,1.6,2.7,4.2,3.245,3.244,12.572,11.258
63.0,1229145.4,-1.601,1.6,2.7,4.2,3.242,3.241,12.565,11.233
65.0,1271275.697,-1.6,1.6,2.7,4.2,3.241,3.238,12.563,11.22
67.0,1307292.011,-1.6,1.6,2.7,4.201,3.24,3.238,12.559,11.217
69.0,1349380.85,-1.6,1.6,2.7,4.201,3.24,3.238,12.558,11.217
71.0,1391775.73,-1.6,1.6,2.7,4.201,3.237,3.233,12.55,11.186
73.0,1434497.107,-1.6,1.6,2.7,4.2,3.233,3.232,12.544,11.177
75.0,1477300.387,-1.6,1.6,2.7,4.201,3.232,3.23,12.54,11.164
77.0,1520215.163,-1.6,1.6,2.7,4.2,3.23,3.228,12.533,11.15
79.0,1563056.503,-1.6,1.6,2.7,4.2,3.23,3.229,12.536,11.162
81.0,1605754.875,-1.6,1.6,2.7,4.201,3.232,3.228,12.534,11.151
83.0,1648609.664,-1.6,1.6,2.7,4.2,3.229,3.226,12.529,11.14
85.0,1691647.015,-1.6,1.6,2.7,4.201,3.228,3.224,12.524,11.125
87.0,1735251.18,-1.6,1.6,2.7,4.201,3.224,3.221,12.517,11.104
89.0,1778985.514,-1.6,1.6,2.7,4.201,3.219,3.216,12.504,11.077
91.0,1822843.846,-1.6,1.6,2.7,4.201,3.216,3.214,12.497,11.063
93.0,1866815.934,-1.601,1.6,2.7,4.201,3.213,3.211,12.488,11.047
95.0,1910724.884,-1.6,1.6,2.7,4.201,3.212,3.208,12.481,11.03
97.0,1954794.186,-1.601,1.6,2.7,4.201,3.209,3.207,12.474,11.026
99.0,1998945.093,-1.6,1.6,2.7,4.201,3.208,3.204,12.47,11.009
101.0,2043748.953,-1.601,1.6,2.7,4.2,3.202,3.202,12.465,10.992
103.0,2087882.999,-1.6,1.6,2.7,4.201,3.208,3.207,12.47,11.033
105.0,2131906.736,-1.6,1.6,2.7,4.201,3.208,3.205,12.467,11.018
107.0,2176123.575,-1.6,1.6,2.7,4.201,3.206,3.205,12.461,11.023
109.0,2220353.935,-1.601,1.6,2.7,4.201,3.205,3.201,12.455,11.0
111.0,2264952.001,-1.601,1.6,2.7,4.201,3.2,3.194,12.437,10.949
113.0,2310217.611,-1.6,1.6,2.7,4.201,3.192,3.19,12.427,10.925
115.0,2348263.029,-1.6,1.6,2.7,4.2,3.185,3.185,12.405,10.901
117.0,2393989.482,-1.6,1.6,2.7,4.2,3.186,3.183,12.409,10.893
119.0,2439642.556,-1.6,1.6,2.7,4.201,3.183,3.18,12.396,10.876
121.0,2485399.22,-1.6,1.6,2.7,4.2,3.181,3.177,12.391,10.858
123.0,2531064.561,-1.601,1.6,2.7,4.2,3.177,3.175,12.379,10.853
125.0,2576582.033,-1.6,1.6,2.7,4.201,3.179,3.176,12.383,10.863
127.0,2622375.907,-1.6,1.6,2.7,4.201,3.174,3.172,12.369,10.84
129.0,2668191.938,-1.601,1.6,2.7,4.201,3.174,3.171,12.368,10.838
131.0,2714155.96,-1.6,1.6,2.7,4.201,3.17,3.166,12.358,10.808
133.0,2760180.416,-1.6,1.6,2.7,4.201,3.167,3.163,12.349,10.794
135.0,2806584.782,-1.6,1.6,2.7,4.201,3.163,3.157,12.335,10.763
137.0,2852992.004,-1.601,1.6,2.7,4.201,3.159,3.156,12.323,10.757
139.0,2898946.189,-1.601,1.6,2.7,4.201,3.161,3.16,12.326,10.792
141.0,2944705.123,-1.6,1.6,2.7,4.201,3.159,3.156,12.317,10.769
143.0,2990449.12,-1.601,1.6,2.7,4.201,3.157,3.155,12.311,10.763
145.0,3036188.966,-1.601,1.6,2.7,4.201,3.155,3.153,12.303,10.754
147.0,3081763.148,-1.601,1.6,2.7,4.201,3.155,3.151,12.297,10.746
149.0,3128030.323,-1.6,1.6,2.7,4.201,3.148,3.144,12.288,10.704
151.0,3174679.347,-1.6,1.6,2.7,4.201,3.144,3.142,12.277,10.688
153.0,3221318.538,-1.6,1.6,2.7,4.201,3.14,3.138,12.265,10.667
155.0,3268265.38,-1.601,1.6,2.7,4.201,3.137,3.135,12.257,10.655
157.0,3306822.362,-1.6,1.6,2.7,4.2,2.545,2.545,9.771,8.46
159.0,3353947.868,-1.6,1.6,2.7,4.201,3.135,3.131,12.251,10.637
161.0,3401072.796,-1.601,1.601,2.7,4.201,3.131,3.13,12.237,10.635
163.0,3447927.552,-1.6,1.6,2.7,4.201,3.131,3.128,12.235,10.627
165.0,3494898.147,-1.601,1.6,2.7,4.201,3.128,3.126,12.228,10.618
167.0,3541872.487,-1.6,1.6,2.7,4.201,3.124,3.121,12.211,10.597
169.0,3584555.857,-1.6,1.6,2.7,4.201,3.121,2.758,12.201,9.607
171.0,3621270.67,-1.601,1.6,2.678,4.201,2.747,2.743,10.809,9.551
173.0,3657659.804,-1.6,1.6,2.7,4.201,2.736,2.724,10.765,9.48
175.0,3686289.224,-1.601,1.6,2.664,4.2,2.154,2.153,8.321,7.345
177.0,3723055.099,-1.6,1.6,2.7,4.201,2.738,2.726,10.773,9.48
179.0,3759778.685,-1.601,1.6,2.7,4.201,2.727,2.717,10.738,9.443
181.0,3796669.876,-1.6,1.6,2.7,4.201,2.725,2.718,10.728,9.45
183.0,3833394.987,-1.6,1.6,2.647,4.201,2.716,2.709,10.695,9.413
185.0,3870035.99,-1.6,1.6,2.7,4.201,2.717,2.715,10.7,9.435
187.0,3906733.001,-1.601,1.6,2.7,4.201,2.711,2.709,10.676,9.408
189.0,3943455.953,-1.6,1.6,2.7,4.201,2.709,2.703,10.67,9.389
191.0,3972031.813,-1.6,1.6,2.7,4.201,2.72,2.7,10.717,9.375
193.0,4000683.016,-1.6,1.6,2.7,4.201,2.711,2.702,10.691,9.383
195.0,4037407.084,-1.6,1.6,2.7,4.201,2.703,2.701,10.648,9.378
197.0,4074066.002,-1.601,1.6,2.7,4.201,2.703,2.702,10.649,9.374
199.0,4110767.101,-1.601,1.6,2.7,4.201,2.703,2.702,10.651,9.373
201.0,4147697.594,-1.6,1.6,2.7,4.201,2.698,2.711,10.635,9.406
202.0,4165385.621,-1.6,1.6,2.858,4.201,2.718,2.558,10.702,8.975