File: Li-ion_Batteries/UL-PUR_R10-OV5_18650_NCA_23C_2.5-96.5_0.5-0.5C_e_cycle_data.csv
Cycle_Index,Test_Time (s),Min_Current (A),Max_Current (A),Min_Voltage (V),Max_Voltage (V),Charge_Capacity (Ah),Discharge_Capacity (Ah),Charge_Energy (Wh),Discharge_Energy (Wh)
1.0,15489.921,-1.134,1.133,2.9,4.0,0.831,2.715,3.278,9.468
3.0,59266.851,-1.134,1.133,2.9,4.0,2.71,2.71,10.142,9.448
5.0,102963.385,-1.134,1.134,2.9,4.0,2.709,2.709,10.136,9.447
7.0,146527.446,-1.134,1.133,2.9,4.0,2.71,2.71,10.137,9.457
9.0,190198.451,-1.134,1.133,2.9,4.0,2.707,2.708,10.13,9.447
11.0,233855.466,-1.134,1.134,2.9,4.0,2.707,2.708,10.128,9.447
13.0,277402.228,-1.134,1.133,2.9,4.0,2.706,2.706,10.124,9.44
15.0,320966.547,-1.134,1.133,2.9,4.0,2.705,2.705,10.121,9.439
17.0,364608.206,-1.134,1.133,2.9,4.0,2.703,2.704,10.116,9.428
19.0,408632.344,-1.134,1.133,2.9,4.0,2.699,2.701,10.11,9.413
21.0,452466.504,-1.134,1.133,2.9,4.0,2.7,2.7,10.106,9.412
23.0,496010.866,-1.134,1.133,2.9,4.0,2.702,2.702,10.108,9.422
25.0,539553.242,-1.134,1.134,2.9,4.0,2.7,2.701,10.104,9.422
27.0,583096.348,-1.134,1.134,2.9,4.001,2.7,2.7,10.101,9.417
29.0,626591.405,-1.134,1.133,2.9,4.001,2.699,2.699,10.098,9.415
31.0,669939.987,-1.134,1.133,2.9,4.0,2.699,2.7,10.097,9.42
33.0,713796.746,-1.134,1.134,2.9,4.0,2.695,2.695,10.086,9.394
35.0,757688.058,-1.134,1.134,2.9,4.0,2.695,2.695,10.087,9.391
37.0,801499.788,-1.134,1.134,2.9,4.001,2.693,2.694,10.082,9.386
39.0,845308.428,-1.134,1.133,2.9,4.0,2.692,2.692,10.078,9.379
41.0,889079.047,-1.134,1.134,2.9,4.0,2.691,2.691,10.077,9.376
43.0,932894.725,-1.134,1.133,2.9,4.0,2.69,2.69,10.073,9.372
45.0,976694.626,-1.134,1.133,2.9,4.0,2.689,2.691,10.068,9.376
47.0,1020456.672,-1.134,1.133,2.9,4.0,2.69,2.69,10.068,9.368
49.0,1059802.784,-1.6,1.6,2.9,4.0,2.694,2.69,10.164,9.258
51.0,1094696.03,-1.6,1.6,2.9,4.001,2.689,2.689,10.152,9.261
53.0,1129464.528,-1.6,1.6,2.9,4.0,2.688,2.688,10.15,9.25
55.0,1162757.268,-1.6,1.6,2.9,4.0,2.687,2.495,10.149,8.689
57.0,1193291.845,-1.6,1.6,2.9,4.0,2.496,2.478,9.471,8.638
59.0,1223744.392,-1.6,1.6,2.9,4.001,2.481,2.482,9.42,8.649
61.0,1254240.142,-1.6,1.6,2.9,4.0,2.488,2.482,9.446,8.644
63.0,1284823.687,-1.6,1.6,2.9,4.0,2.49,2.491,9.453,8.674
65.0,1315338.962,-1.6,1.6,2.9,4.0,2.481,2.464,9.421,8.585
67.0,1345912.222,-1.6,1.6,2.9,4.0,2.484,2.471,9.433,8.603
69.0,1376383.066,-1.6,1.6,2.9,4.001,2.484,2.47,9.433,8.603
71.0,1406899.643,-1.6,1.6,2.9,4.0,2.477,2.463,9.407,8.574
73.0,1437439.843,-1.6,1.6,2.9,4.0,2.469,2.475,9.381,8.614
75.0,1467951.322,-1.6,1.6,2.9,4.0,2.469,2.464,9.38,8.579
77.0,1492595.285,-1.6,1.6,2.9,4.0,2.475,2.46,9.404,8.558
79.0,1523124.766,-1.6,1.6,2.9,4.0,2.47,2.46,9.384,8.561
81.0,1553716.812,-1.6,1.6,2.9,4.0,2.474,2.459,9.401,8.56
83.0,1584268.528,-1.6,1.6,2.9,4.0,2.463,2.456,9.363,8.545
85.0,1614854.752,-1.6,1.6,2.9,4.0,2.468,2.465,9.378,8.574
87.0,1645463.637,-1.6,1.6,2.9,4.0,2.459,2.467,9.348,8.578
89.0,1676065.933,-1.6,1.6,2.9,4.0,2.461,2.452,9.355,8.531
91.0,1706715.262,-1.6,1.6,2.9,4.0,2.458,2.46,9.346,8.556
93.0,1737359.721,-1.6,1.6,2.9,4.001,2.466,2.477,9.371,8.619
95.0,1767813.01,-1.6,1.6,2.9,4.001,2.479,2.478,9.415,8.621
97.0,1798433.93,-1.6,1.6,2.9,4.001,2.477,2.475,9.408,8.611
99.0,1829053.606,-1.6,1.6,2.9,4.001,2.479,2.471,9.413,8.598
101.0,1859786.403,-1.6,1.6,2.9,4.004,2.461,2.399,9.36,8.33
103.0,1890457.853,-1.6,1.6,2.9,4.0,2.386,2.379,9.104,8.256
105.0,1921103.247,-1.6,1.6,2.9,4.0,2.425,2.433,9.233,8.454
107.0,1951752.894,-1.6,1.6,2.9,4.0,2.439,2.439,9.282,8.478
109.0,1982403.64,-1.6,1.6,2.9,4.0,2.437,2.426,9.275,8.43
111.0,2013104.494,-1.6,1.6,2.9,4.0,2.424,2.427,9.232,8.435
113.0,2043779.361,-1.6,1.6,2.9,4.0,2.417,2.413,9.209,8.381
115.0,2074517.791,-1.6,1.6,2.9,4.0,2.41,2.418,9.185,8.404
117.0,2105200.806,-1.6,1.6,2.9,4.0,2.427,2.422,9.242,8.413
119.0,2135852.341,-1.6,1.6,2.9,4.0,2.42,2.432,9.219,8.449
121.0,2166554.898,-1.6,1.6,2.9,4.0,2.431,2.419,9.253,8.403
123.0,2197279.868,-1.6,1.6,2.9,4.0,2.431,2.421,9.256,8.407
125.0,2227983.207,-1.6,1.6,2.9,4.0,2.418,2.418,9.211,8.399
127.0,2258742.269,-1.6,1.6,2.9,4.0,2.406,2.407,9.17,8.358
129.0,2282995.443,-1.6,1.6,2.9,4.0,1.839,1.844,6.903,6.271
131.0,2313899.06,-1.6,1.6,2.9,4.0,2.411,2.389,9.191,8.291
133.0,2344756.077,-1.6,1.6,2.9,4.0,2.403,2.399,9.163,8.324
135.0,2375542.315,-1.6,1.6,2.9,4.0,2.401,2.396,9.154,8.314
137.0,2406368.917,-1.6,1.6,2.9,4.0,2.39,2.398,9.12,8.32
139.0,2430670.157,-1.6,1.6,2.9,4.0,2.404,2.397,9.17,8.315
141.0,2461487.794,-1.6,1.6,2.9,4.0,2.397,2.398,9.141,8.317
143.0,2485735.872,-1.6,1.6,2.899,4.0,1.814,1.817,6.811,6.171
145.0,2516691.849,-1.6,1.6,2.9,4.0,2.398,2.4,9.145,8.324
147.0,2547525.871,-1.6,1.6,2.9,4.0,2.398,2.389,9.146,8.287
149.0,2578367.85,-1.6,1.6,2.9,4.0,2.384,2.383,9.099,8.263
151.0,2609114.765,-1.6,1.6,2.9,4.0,2.37,2.378,9.048,8.245
153.0,2640013.795,-1.6,1.6,2.9,4.0,2.378,2.375,9.078,8.235
155.0,2670908.315,-1.603,1.6,2.897,4.0,2.375,2.369,9.067,8.213
157.0,2701802.309,-1.6,1.6,2.9,4.0,2.369,2.362,9.049,8.184
159.0,2732752.776,-1.6,1.6,2.9,4.0,2.374,2.369,9.063,8.211
161.0,2763671.737,-1.6,1.6,2.9,4.0,2.368,2.37,9.046,8.214
163.0,2787883.437,-1.6,1.6,2.9,4.0,2.377,2.36,9.079,8.175
165.0,2818823.019,-1.6,1.6,2.9,4.0,2.366,2.366,9.039,8.2
167.0,2849781.36,-1.6,1.6,2.9,4.0,2.365,2.362,9.035,8.187
169.0,2880814.33,-1.6,1.6,2.9,4.0,2.36,2.377,9.017,8.241
171.0,2911682.589,-1.6,1.6,2.9,4.0,2.381,2.359,9.088,8.176
173.0,2942626.287,-1.6,1.6,2.9,4.0,2.358,2.364,9.01,8.187
175.0,2973564.969,-1.6,1.6,2.9,4.0,2.354,2.357,8.995,8.167
177.0,3004554.36,-1.6,1.6,2.9,4.0,2.365,2.357,9.033,8.166
179.0,3028672.007,-1.6,1.6,2.9,4.0,2.367,2.358,9.047,8.168
181.0,3059570.918,-1.6,1.6,2.9,4.0,2.342,2.348,8.955,8.131
183.0,3090606.54,-1.6,1.6,2.9,4.0,2.355,2.347,8.996,8.127
185.0,3121582.4,-1.6,1.6,2.9,4.0,2.349,2.341,8.98,8.107
187.0,3152578.644,-1.6,1.6,2.9,4.0,2.345,2.343,8.968,8.115
189.0,3183615.265,-1.6,1.6,2.9,4.0,2.345,2.346,8.965,8.124
191.0,3214605.252,-1.6,1.6,2.9,4.0,2.352,2.35,8.988,8.141
193.0,3245601.024,-1.6,1.6,2.9,4.0,2.348,2.354,8.975,8.155
195.0,3276580.219,-1.6,1.6,2.898,4.0,2.355,2.357,8.998,8.166
197.0,3307568.662,-1.6,1.6,2.9,4.0,2.347,2.343,8.973,8.115
199.0,3338543.844,-1.6,1.6,2.9,4.0,2.344,2.342,8.96,8.112
201.0,3369542.142,-1.6,1.6,2.9,4.0,2.341,2.338,8.952,8.1
203.0,3400517.84,-1.6,1.6,2.9,4.0,2.336,2.333,8.934,8.077
205.0,3431510.55,-1.6,1.6,2.9,4.0,2.34,2.335,8.947,8.085
207.0,3462564.561,-1.6,1.6,2.9,4.0,2.339,2.332,8.945,8.076
209.0,3493575.787,-1.6,1.6,2.9,4.0,2.33,2.331,8.914,8.071
211.0,3524589.415,-1.6,1.6,2.9,4.0,2.334,2.331,8.927,8.07
213.0,3555584.889,-1.6,1.6,2.9,4.0,2.331,2.326,8.919,8.052
215.0,3586634.024,-1.6,1.6,2.9,4.0,2.327,2.329,8.904,8.063
217.0,3610625.707,-1.6,1.6,2.9,4.0,2.34,2.327,8.955,8.053
219.0,3641637.826,-1.6,1.6,2.9,4.0,2.324,2.325,8.895,8.049
221.0,3665486.779,-1.6,1.6,2.9,4.0,1.709,1.726,6.435,5.843
223.0,3689461.34,-1.6,1.6,2.9,4.0,1.718,1.72,6.463,5.822
225.0,3720623.58,-1.6,1.6,2.9,4.0,2.322,2.319,8.886,8.026
227.0,3751734.403,-1.6,1.6,2.9,4.0,2.317,2.32,8.872,8.027
229.0,3782824.038,-1.6,1.6,2.9,4.0,2.32,2.317,8.879,8.019
231.0,3813906.032,-1.6,1.6,2.899,4.0,2.319,2.314,8.876,8.006
233.0,3837658.729,-1.6,1.6,2.9,4.0,1.693,1.703,6.376,5.76
235.0,3868875.673,-1.6,1.6,2.9,4.0,2.31,2.31,8.846,7.994
237.0,3900013.299,-1.6,1.6,2.9,4.0,2.317,2.308,8.869,7.985
239.0,3931116.768,-1.6,1.6,2.9,4.0,2.313,2.302,8.857,7.962
241.0,3962233.546,-1.6,1.6,2.9,4.0,2.313,2.311,8.855,7.995
243.0,3993315.238,-1.6,1.6,2.9,4.0,2.311,2.307,8.845,7.98
245.0,4017230.288,-1.6,1.6,2.9,4.0,2.321,2.307,8.887,7.976
247.0,4048354.854,-1.6,1.6,2.899,4.0,2.306,2.302,8.83,7.963
249.0,4079453.934,-1.6,1.6,2.9,4.003,2.307,2.31,8.833,7.989
251.0,4110576.473,-1.6,1.6,2.9,4.0,2.305,2.299,8.827,7.954
253.0,4141696.68,-1.6,1.6,2.9,4.0,2.3,2.298,8.81,7.949
255.0,4172754.648,-1.6,1.6,2.9,4.0,2.297,2.304,8.798,7.967
257.0,4203866.799,-1.6,1.6,2.9,4.0,2.305,2.303,8.828,7.965
259.0,4234988.805,-1.6,1.6,2.9,4.0,2.301,2.309,8.814,7.988
261.0,4266090.122,-1.6,1.6,2.9,4.0,2.308,2.304,8.837,7.968
263.0,4297068.001,-1.6,1.6,2.9,4.0,2.303,2.294,8.82,7.933
265.0,4328114.354,-1.6,1.6,2.9,4.0,2.294,2.302,8.79,7.963
267.0,4359187.356,-1.6,1.6,2.9,4.0,2.306,2.305,8.828,7.975
268.0,4363714.188,0.896,1.6,3.371,4.0,1.931,0.0,7.33,0.0