File: Li-ion_Batteries/UL-PUR_R20-NA8_18650_NCA_23C_2.5-96.5_0.5-0.5C_h_cycle_data.csv
Cycle_Index,Test_Time (s),Min_Current (A),Max_Current (A),Min_Voltage (V),Max_Voltage (V),Charge_Capacity (Ah),Discharge_Capacity (Ah),Charge_Energy (Wh),Discharge_Energy (Wh)
1.0,63530.021,-1.599,1.6,2.9,4.163,0.02,3.124,0.083,11.109
5.0,125681.548,-1.599,1.6,2.9,4.0,2.572,2.575,9.751,8.992
9.0,187919.336,-1.599,1.6,2.9,4.0,2.563,2.56,9.722,8.933
13.0,250097.587,-1.599,1.6,2.9,4.0,2.553,2.552,9.686,8.901
17.0,312246.162,-1.599,1.6,2.9,4.0,2.557,2.556,9.697,8.914
21.0,374421.908,-1.599,1.6,2.9,4.0,2.552,2.549,9.68,8.887
25.0,436593.658,-1.599,1.6,2.9,4.0,2.563,2.566,9.719,8.949
29.0,498701.602,-1.599,1.6,2.9,4.0,2.547,2.541,9.666,8.854
33.0,560911.0,-1.599,1.6,2.9,4.0,2.543,2.543,9.65,8.859
37.0,623193.312,-1.599,1.6,2.9,4.0,2.535,2.529,9.628,8.812
41.0,685412.094,-1.599,1.6,2.9,4.0,2.523,2.529,9.587,8.807
45.0,747672.273,-1.599,1.6,2.9,4.0,2.526,2.534,9.597,8.823
49.0,809956.853,-1.6,1.6,2.9,4.0,2.536,2.537,9.629,8.832
53.0,866215.381,-1.599,1.6,2.9,4.0,2.526,2.524,9.599,8.783
57.0,928593.155,-1.6,1.6,2.9,4.0,2.519,2.515,9.573,8.751
61.0,990959.008,-1.599,1.6,2.9,4.0,2.511,2.514,9.549,8.745
65.0,1047252.775,-1.599,1.6,2.9,4.0,2.509,2.51,9.539,8.73
69.0,1109679.082,-1.599,1.6,2.9,4.0,2.505,2.501,9.526,8.693
73.0,1172209.884,-1.599,1.6,2.9,4.0,2.502,2.5,9.52,8.691
77.0,1234705.607,-1.599,1.6,2.9,4.0,2.497,2.495,9.497,8.669
81.0,1297300.915,-1.599,1.6,2.9,4.0,2.493,2.493,9.486,8.663
85.0,1353610.217,-1.599,1.6,2.895,4.0,2.49,2.49,9.477,8.649
89.0,1403530.836,-1.599,1.6,2.9,4.0,1.913,1.923,7.171,6.542
93.0,1466320.823,-1.599,1.6,2.9,4.0,2.483,2.478,9.455,8.602
97.0,1529120.034,-1.599,1.6,2.9,4.0,2.485,2.478,9.461,8.602
101.0,1591983.278,-1.599,1.6,2.9,4.0,2.475,2.474,9.429,8.588
105.0,1648283.73,-1.599,1.6,2.9,4.0,2.472,2.47,9.418,8.573
109.0,1704639.099,-1.599,1.6,2.9,4.0,2.466,2.472,9.396,8.577
113.0,1760969.02,-1.599,1.6,2.9,4.0,2.473,2.463,9.424,8.543
117.0,1823941.905,-1.599,1.6,2.9,4.0,2.464,2.461,9.389,8.538
121.0,1886859.465,-1.599,1.6,2.9,4.0,2.462,2.464,9.382,8.548
125.0,1943127.053,-1.599,1.6,2.9,4.0,1.877,1.88,7.041,6.387
129.0,1999509.657,-1.599,1.6,2.9,4.0,2.464,2.454,9.393,8.511
133.0,2055801.731,-1.6,1.6,2.9,4.0,2.457,2.446,9.368,8.486
137.0,2118836.297,-1.599,1.6,2.9,4.0,2.444,2.446,9.32,8.485
141.0,2181908.027,-1.599,1.6,2.9,4.0,2.445,2.437,9.324,8.448
145.0,2244983.943,-1.599,1.6,2.9,4.0,2.447,2.442,9.329,8.468
149.0,2308012.121,-1.599,1.6,2.9,4.0,2.44,2.426,9.303,8.41
153.0,2371064.658,-1.599,1.6,2.9,4.0,2.423,2.411,9.248,8.352
157.0,2427287.519,-1.6,1.6,2.9,4.0,2.432,2.429,9.278,8.42
161.0,2490287.628,-1.599,1.6,2.9,4.0,2.422,2.423,9.246,8.398
165.0,2546534.925,-1.6,1.6,2.9,4.0,2.421,2.422,9.239,8.391
169.0,2609653.16,-1.599,1.6,2.893,4.0,2.409,2.409,9.201,8.343
173.0,2672734.931,-1.599,1.6,2.9,4.0,2.429,2.419,9.264,8.384
177.0,2728920.063,-1.6,1.6,2.9,4.0,2.404,2.416,9.182,8.369
181.0,2791942.866,-1.599,1.6,2.9,4.0,2.413,2.407,9.213,8.34
185.0,2848127.389,-1.599,1.6,2.9,4.0,2.423,2.41,9.252,8.351
189.0,2911345.861,-1.599,1.6,2.9,4.0,2.387,2.373,9.126,8.213
193.0,2974530.255,-1.599,1.6,2.9,4.0,2.394,2.394,9.145,8.29
197.0,3037649.079,-1.6,1.6,2.9,4.0,2.385,2.415,9.117,8.365
201.0,3100832.982,-1.599,1.6,2.9,4.0,2.387,2.385,9.121,8.259
205.0,3163956.938,-1.599,1.6,2.9,4.0,2.385,2.387,9.115,8.259
209.0,3227013.928,-1.6,1.6,2.9,4.0,2.389,2.395,9.13,8.297
213.0,3289986.108,-1.6,1.6,2.9,4.0,2.388,2.392,9.123,8.287
217.0,3352963.288,-1.599,1.6,2.9,4.0,2.383,2.385,9.108,8.254
221.0,3416051.364,-1.599,1.6,2.9,4.0,2.36,2.369,9.029,8.201
225.0,3479056.108,-1.599,1.6,2.9,4.0,2.359,2.358,9.025,8.158
229.0,3542016.616,-1.599,1.6,2.9,4.0,2.363,2.363,9.04,8.18
233.0,3605085.866,-1.599,1.6,2.9,4.0,2.362,2.36,9.034,8.167
237.0,3668041.232,-1.6,1.6,2.9,4.0,2.364,2.364,9.039,8.182
241.0,3731047.153,-1.599,1.6,2.9,4.0,2.362,2.364,9.035,8.181
245.0,3786824.188,-1.599,1.6,2.9,4.0,2.369,2.353,9.065,8.14
249.0,3849785.367,-1.599,1.6,2.9,4.0,2.36,2.357,9.026,8.157
253.0,3912795.51,-1.599,1.6,2.899,4.0,2.355,2.345,9.01,8.114
257.0,3975761.712,-1.6,1.6,2.9,4.0,2.348,2.358,8.982,8.156
261.0,4031334.583,-1.599,1.6,2.9,4.0,2.321,2.342,8.887,8.103
265.0,4094376.869,-1.599,1.6,2.9,4.0,2.325,2.32,8.907,8.02
269.0,4157464.848,-1.599,1.6,2.9,4.0,2.325,2.321,8.908,8.026
273.0,4220506.588,-1.6,1.6,2.9,4.0,2.326,2.33,8.909,8.06
277.0,4283522.659,-1.599,1.6,2.9,4.0,2.314,2.317,8.869,8.011
281.0,4339095.787,-1.599,1.6,2.9,4.0,2.309,2.306,8.852,7.971
285.0,4394625.324,-1.599,1.6,2.9,4.0,2.304,2.307,8.833,7.974
289.0,4457688.895,-1.599,1.6,2.9,4.0,2.295,2.305,8.805,7.966
293.0,4520723.879,-1.599,1.6,2.9,4.0,2.299,2.297,8.817,7.935
297.0,4583763.731,-1.599,1.6,2.9,4.0,2.311,2.311,8.855,7.988
301.0,4639131.159,-1.599,1.6,2.9,4.0,1.664,1.675,6.273,5.656
305.0,4702270.615,-1.599,1.6,2.9,4.0,2.292,2.292,8.793,7.918
309.0,4757518.46,-1.599,1.6,2.9,4.0,1.65,1.672,6.221,5.645
313.0,4813013.967,-1.599,1.6,2.9,4.0,2.318,2.29,8.887,7.912
317.0,4875906.182,-1.599,1.6,2.9,4.0,2.289,2.287,8.78,7.901
321.0,4938905.951,-1.599,1.6,2.9,4.0,2.285,2.287,8.766,7.904
325.0,5001825.019,-1.599,1.6,2.9,4.0,2.278,2.279,8.743,7.871
329.0,5064690.758,-1.599,1.6,2.9,4.0,2.286,2.281,8.767,7.878
333.0,5127539.588,-1.599,1.6,2.9,4.0,2.285,2.283,8.766,7.888
337.0,5190521.364,-1.599,1.6,2.895,4.0,2.279,2.284,8.745,7.89
341.0,5253344.772,-1.6,1.6,2.9,4.0,2.283,2.278,8.754,7.869
345.0,5316162.469,-1.6,1.6,2.9,4.0,2.276,2.285,8.733,7.895
349.0,5378987.635,-1.599,1.6,2.9,4.0,2.273,2.276,8.723,7.863
353.0,5441723.92,-1.599,1.6,2.9,4.0,2.27,2.275,8.711,7.858
357.0,5504413.403,-1.599,1.6,2.9,4.0,2.271,2.266,8.714,7.825
361.0,5567186.863,-1.599,1.6,2.9,4.0,2.27,2.27,8.711,7.842
365.0,5629837.543,-1.599,1.6,2.9,4.0,2.268,2.264,8.704,7.823
369.0,5692414.244,-1.599,1.6,2.9,4.0,2.262,2.268,8.683,7.833
373.0,5754963.012,-1.599,1.6,2.9,4.0,2.27,2.257,8.708,7.8
377.0,5817616.09,-1.599,1.6,2.9,4.0,2.245,2.242,8.625,7.737
381.0,5880265.931,-1.599,1.6,2.9,4.0,2.246,2.242,8.625,7.74
385.0,5935231.678,-1.599,1.6,2.9,4.0,2.27,2.244,8.72,7.747
389.0,5997853.65,-1.599,1.6,2.9,4.0,2.228,2.226,8.565,7.678
393.0,6052622.495,-1.599,1.6,2.9,4.0,1.59,1.611,6.005,5.433
397.0,6115210.83,-1.599,1.601,2.9,4.0,2.241,2.238,8.607,7.727
401.0,6177775.124,-1.599,1.6,2.9,4.0,2.237,2.242,8.595,7.739
405.0,6240297.757,-1.599,1.6,2.9,4.0,2.236,2.237,8.591,7.722
409.0,6302864.416,-1.599,1.6,2.9,4.0,2.237,2.235,8.594,7.715
413.0,6365364.64,-1.599,1.6,2.9,4.0,2.236,2.237,8.591,7.723
417.0,6428024.4,-1.599,1.601,2.9,4.0,2.232,2.22,8.577,7.659
421.0,6490534.316,-1.599,1.6,2.9,4.0,2.221,2.227,8.54,7.687
425.0,6553014.375,-1.599,1.6,2.9,4.0,2.221,2.224,8.54,7.676
429.0,6607712.039,-1.599,1.6,2.9,4.0,2.227,2.221,8.559,7.663
433.0,6670236.614,-1.599,1.6,2.9,4.0,2.219,2.193,8.532,7.564
437.0,6732996.818,-1.599,1.6,2.9,4.0,2.176,2.208,8.386,7.616
441.0,6795497.556,-1.6,1.6,2.9,4.0,2.213,2.207,8.509,7.61
445.0,6857980.673,-1.599,1.6,2.9,4.0,2.209,2.217,8.498,7.649
449.0,6920309.905,-1.599,1.6,2.899,4.0,2.208,2.211,8.493,7.628
453.0,6982645.93,-1.599,1.6,2.9,4.0,2.212,2.208,8.503,7.619
457.0,7045005.312,-1.599,1.6,2.9,4.0,2.21,2.213,8.499,7.636
461.0,7107257.383,-1.6,1.6,2.9,4.0,2.21,2.212,8.499,7.631
465.0,7161855.363,-1.6,1.6,2.9,4.0,2.211,2.205,8.505,7.605
469.0,7224115.878,-1.599,1.6,2.9,4.0,2.2,2.203,8.46,7.596
473.0,7286322.343,-1.599,1.6,2.9,4.0,2.203,2.204,8.474,7.604
477.0,7348591.593,-1.6,1.6,2.9,4.0,2.198,2.199,8.456,7.588
481.0,7402689.816,-1.599,1.6,2.9,4.0,1.524,1.548,5.767,5.207
485.0,7465080.271,-1.599,1.6,2.9,4.0,2.182,2.183,8.402,7.526
489.0,7527288.234,-1.6,1.6,2.9,4.0,2.184,2.197,8.407,7.576
493.0,7589652.774,-1.599,1.6,2.9,4.0,2.18,2.176,8.394,7.496
497.0,7651762.273,-1.599,1.6,2.9,4.0,2.165,2.171,8.342,7.478
501.0,7713872.034,-1.599,1.6,2.9,4.0,2.178,2.178,8.387,7.51
505.0,7775993.637,-1.599,1.6,2.9,4.0,2.175,2.18,8.376,7.517
509.0,7838060.846,-1.599,1.6,2.9,4.0,2.167,2.175,8.349,7.493
513.0,7900173.508,-1.599,1.6,2.9,4.0,2.151,2.146,8.292,7.387
517.0,7962419.836,-1.599,1.6,2.9,4.0,2.133,2.128,8.232,7.32
521.0,8024747.148,-1.599,1.6,2.9,4.0,2.127,2.124,8.209,7.306
525.0,8086993.23,-1.599,1.6,2.9,4.0,2.13,2.133,8.212,7.341
529.0,8149358.922,-1.599,1.6,2.9,4.0,2.11,2.107,8.153,7.243
533.0,8211618.736,-1.599,1.6,2.9,4.0,2.134,2.145,8.233,7.387
537.0,8273722.128,-1.599,1.6,2.9,4.0,2.136,2.136,8.24,7.354
541.0,8335631.252,-1.599,1.6,2.9,4.0,2.154,2.139,8.301,7.364
545.0,8397644.926,-1.599,1.6,2.9,4.0,2.118,2.111,8.175,7.26
549.0,8459747.695,-1.599,1.6,2.9,4.0,2.128,2.128,8.211,7.322
553.0,8521997.357,-1.599,1.6,2.9,4.0,2.124,2.126,8.195,7.317
557.0,8583930.418,-1.6,1.6,2.9,4.0,2.131,2.133,8.218,7.345
561.0,8645816.202,-1.599,1.6,2.9,4.0,2.118,2.114,8.176,7.273
565.0,8699611.782,-1.599,1.6,2.9,4.0,2.114,2.117,8.162,7.286
569.0,8761585.854,-1.599,1.6,2.9,4.0,2.116,2.121,8.167,7.302
573.0,8823454.95,-1.599,1.6,2.9,4.0,2.12,2.124,8.183,7.312
577.0,8885177.204,-1.599,1.6,2.9,4.0,2.12,2.124,8.178,7.31
581.0,8946803.188,-1.6,1.6,2.9,4.0,2.125,2.115,8.195,7.277
585.0,9008503.988,-1.599,1.6,2.9,4.0,2.112,2.108,8.153,7.255
589.0,9062091.468,-1.599,1.6,2.9,4.0,2.133,2.092,8.238,7.193
593.0,9123978.944,-1.599,1.6,2.9,4.0,2.083,2.089,8.05,7.182
597.0,9185824.771,-1.599,1.6,2.9,4.0,2.077,2.074,8.033,7.126
601.0,9239428.574,-1.599,1.6,2.9,4.0,2.123,2.085,8.204,7.168
605.0,9301232.555,-1.599,1.6,2.9,4.0,2.089,2.081,8.072,7.152
609.0,9362871.548,-1.599,1.6,2.9,4.0,2.081,2.079,8.043,7.144
613.0,9424383.005,-1.599,1.6,2.9,4.0,2.085,2.083,8.055,7.164
617.0,9485965.591,-1.599,1.6,2.9,4.0,2.079,2.077,8.037,7.141
621.0,9547468.712,-1.599,1.6,2.9,4.0,2.073,2.077,8.014,7.142
625.0,9608836.669,-1.599,1.6,2.9,4.0,2.079,2.077,8.033,7.14
629.0,9670329.945,-1.599,1.6,2.9,4.0,2.065,2.065,7.985,7.096
633.0,9723444.716,-1.599,1.6,2.9,4.0,2.092,2.056,8.093,7.063
637.0,9784866.686,-1.599,1.6,2.9,4.0,2.07,2.066,8.001,7.102
641.0,9840249.128,0.064,1.6,3.414,4.0,2.063,0.0,7.97,0.0