File: Li-ion_Batteries/UL-PUR_N10-NA7_18650_NCA_23C_0-100_0.5-0.5C_g_cycle_data.csv
Cycle_Index,Test_Time (s),Min_Current (A),Max_Current (A),Min_Voltage (V),Max_Voltage (V),Charge_Capacity (Ah),Discharge_Capacity (Ah),Charge_Energy (Wh),Discharge_Energy (Wh)
1.0,14451.102,-1.6,1.6,2.7,4.2,1.393,3.032,5.681,10.691
3.0,50989.115,-1.6,1.6,2.7,4.2,3.025,3.017,11.786,10.626
5.0,87554.373,-1.6,1.6,2.7,4.2,3.024,3.027,11.78,10.667
7.0,124081.916,-1.6,1.6,2.7,4.2,3.022,3.027,11.774,10.667
9.0,160481.432,-1.6,1.6,2.7,4.2,3.024,3.013,11.779,10.617
11.0,196908.36,-1.6,1.6,2.7,4.2,3.021,3.017,11.768,10.621
13.0,233405.797,-1.6,1.6,2.7,4.2,3.013,2.994,11.741,10.531
15.0,269939.834,-1.6,1.6,2.7,4.2,2.996,2.996,11.685,10.535
17.0,306533.519,-1.6,1.6,2.7,4.2,2.994,2.976,11.679,10.457
19.0,343231.268,-1.6,1.6,2.7,4.2,2.988,2.983,11.659,10.484
21.0,373030.997,-1.6,1.6,2.7,4.2,2.427,2.424,9.308,8.352
23.0,409741.117,-1.6,1.6,2.7,4.2,2.973,2.976,11.61,10.457
25.0,439601.205,-1.6,1.6,2.7,4.2,2.976,2.97,11.624,10.43
27.0,476289.552,-1.6,1.6,2.7,4.2,2.965,2.961,11.59,10.396
29.0,513099.462,-1.6,1.6,2.7,4.2,2.966,2.969,11.589,10.42
31.0,549808.181,-1.6,1.6,2.7,4.2,2.963,2.954,11.575,10.364
33.0,586649.209,-1.6,1.6,2.7,4.2,2.949,2.952,11.531,10.358
35.0,623426.485,-1.6,1.6,2.7,4.2,2.947,2.946,11.525,10.329
37.0,660285.9,-1.6,1.6,2.7,4.2,2.941,2.942,11.506,10.316
39.0,697251.419,-1.6,1.6,2.7,4.2,2.937,2.925,11.492,10.245
41.0,734203.689,-1.6,1.6,2.7,4.2,2.931,2.929,11.47,10.258
43.0,771097.659,-1.6,1.6,2.7,4.2,2.926,2.921,11.455,10.232
45.0,808093.229,-1.6,1.6,2.7,4.2,2.92,2.92,11.437,10.224
47.0,845050.278,-1.6,1.6,2.7,4.2,2.918,2.916,11.429,10.211
49.0,882030.243,-1.6,1.6,2.7,4.2,2.918,2.93,11.425,10.266
51.0,919007.771,-1.6,1.6,2.7,4.2,2.927,2.909,11.46,10.179
53.0,956044.175,-1.6,1.6,2.7,4.2,2.911,2.905,11.406,10.162
55.0,993029.226,-1.6,1.6,2.7,4.2,2.903,2.901,11.378,10.15
57.0,1030047.2,-1.6,1.6,2.7,4.2,2.903,2.899,11.376,10.141
59.0,1067264.065,-1.6,1.6,2.7,4.2,2.895,2.894,11.352,10.121
61.0,1104227.105,-1.6,1.6,2.7,4.2,2.892,2.891,11.337,10.108
63.0,1141324.317,-1.6,1.6,2.7,4.2,2.885,2.889,11.317,10.098
65.0,1178448.965,-1.6,1.6,2.7,4.2,2.886,2.886,11.321,10.087
67.0,1215513.556,-1.6,1.6,2.7,4.2,2.891,2.885,11.336,10.084
69.0,1252656.435,-1.6,1.6,2.7,4.2,2.884,2.885,11.312,10.084
71.0,1289744.991,-1.6,1.6,2.7,4.2,2.888,2.877,11.325,10.051
73.0,1326940.64,-1.6,1.6,2.7,4.2,2.877,2.872,11.289,10.033
75.0,1356346.885,-1.6,1.6,2.7,4.2,2.271,2.274,8.751,7.781
77.0,1385751.61,-1.6,1.6,2.7,4.2,2.26,2.265,8.711,7.748
79.0,1423095.245,-1.6,1.6,2.7,4.2,2.866,2.86,11.254,9.982
81.0,1460387.259,-1.6,1.6,2.7,4.2,2.862,2.855,11.241,9.962
83.0,1497686.479,-1.6,1.6,2.7,4.2,2.854,2.852,11.215,9.951
85.0,1534896.558,-1.6,1.6,2.7,4.2,2.851,2.851,11.202,9.945
87.0,1572206.815,-1.6,1.6,2.7,4.2,2.847,2.845,11.188,9.923
89.0,1609469.803,-1.6,1.6,2.7,4.2,2.845,2.847,11.183,9.927
91.0,1646712.192,-1.6,1.6,2.7,4.2,2.843,2.838,11.173,9.896
93.0,1684163.971,-1.6,1.6,2.7,4.2,2.844,2.835,11.181,9.887
95.0,1721451.31,-1.6,1.6,2.7,4.2,2.837,2.834,11.154,9.878
97.0,1758709.233,-1.6,1.6,2.7,4.2,2.833,2.832,11.141,9.871
99.0,1795981.076,-1.6,1.6,2.699,4.2,2.83,2.83,11.131,9.862
101.0,1833254.555,-1.6,1.6,2.7,4.2,2.829,2.821,11.126,9.827
103.0,1870574.454,-1.6,1.6,2.7,4.2,2.825,2.822,11.113,9.827
105.0,1907827.683,-1.6,1.6,2.7,4.2,2.821,2.821,11.101,9.826
107.0,1937177.298,-1.6,1.6,2.7,4.2,2.824,2.821,11.119,9.823
109.0,1974556.12,-1.6,1.6,2.7,4.2,2.818,2.821,11.091,9.821
111.0,2011869.255,-1.6,1.6,2.7,4.2,2.816,2.81,11.083,9.776
113.0,2049232.988,-1.6,1.6,2.7,4.2,2.81,2.806,11.062,9.765
115.0,2086306.798,-1.6,1.6,2.7,4.2,2.811,2.806,11.065,9.763
117.0,2123624.478,-1.6,1.6,2.7,4.2,2.804,2.801,11.041,9.746
119.0,2160974.368,-1.6,1.6,2.7,4.2,2.8,2.802,11.027,9.75
121.0,2198253.961,-1.6,1.6,2.7,4.2,2.799,2.798,11.021,9.732
123.0,2235562.193,-1.6,1.6,2.7,4.2,2.796,2.805,11.015,9.762
125.0,2272781.128,-1.6,1.6,2.7,4.2,2.797,2.795,11.015,9.721
127.0,2309874.134,-1.6,1.6,2.7,4.2,2.79,2.786,10.991,9.683
129.0,2347122.236,-1.6,1.6,2.7,4.2,2.792,2.795,11.0,9.723
131.0,2384409.203,-1.6,1.6,2.7,4.2,2.788,2.788,10.984,9.692
133.0,2413545.727,-1.6,1.6,2.7,4.2,2.797,2.783,11.025,9.674
135.0,2450782.92,-1.6,1.6,2.7,4.2,2.78,2.782,10.955,9.67
137.0,2488153.859,-1.6,1.6,2.7,4.2,2.78,2.781,10.958,9.673
139.0,2525393.753,-1.6,1.6,2.7,4.2,2.779,2.768,10.951,9.615
141.0,2562693.65,-1.6,1.6,2.7,4.2,2.771,2.772,10.927,9.631
143.0,2599847.491,-1.6,1.6,2.7,4.2,2.773,2.78,10.933,9.669
145.0,2637029.243,-1.6,1.6,2.7,4.2,2.768,2.761,10.914,9.586
147.0,2674311.499,-1.6,1.6,2.7,4.2,2.763,2.772,10.901,9.637
149.0,2711471.381,-1.6,1.6,2.7,4.2,2.769,2.764,10.916,9.601
151.0,2748750.952,-1.6,1.6,2.7,4.2,2.76,2.768,10.888,9.617
153.0,2777728.99,-1.6,1.6,2.7,4.2,2.771,2.75,10.934,9.544
155.0,2815041.484,-1.6,1.6,2.7,4.2,2.749,2.742,10.85,9.515
157.0,2852387.727,-1.6,1.6,2.7,4.2,2.748,2.756,10.848,9.572
159.0,2889542.411,-1.6,1.6,2.7,4.2,2.751,2.749,10.855,9.552
161.0,2926768.611,-1.6,1.6,2.7,4.2,2.737,2.735,10.811,9.488
163.0,2964038.594,-1.6,1.6,2.7,4.2,2.735,2.725,10.802,9.449
165.0,3001272.48,-1.6,1.6,2.7,4.2,2.731,2.729,10.789,9.465
167.0,3038499.556,-1.6,1.6,2.7,4.2,2.726,2.723,10.772,9.443
169.0,3075805.135,-1.6,1.6,2.7,4.2,2.719,2.721,10.749,9.432
171.0,3113102.953,-1.6,1.6,2.7,4.2,2.73,2.739,10.783,9.509
173.0,3150175.83,-1.6,1.6,2.7,4.2,2.723,2.715,10.762,9.411
175.0,3182110.051,-1.6,1.6,3.36,4.2,2.714,0.537,10.732,2.057