File: Li-ion_Batteries/UL-PUR_N15-EX4_18650_NCA_23C_0-100_0.5-0.5C_d_cycle_data.csv
Cycle_Index,Test_Time (s),Min_Current (A),Max_Current (A),Min_Voltage (V),Max_Voltage (V),Charge_Capacity (Ah),Discharge_Capacity (Ah),Charge_Energy (Wh),Discharge_Energy (Wh)
1.0,9382.878,-1.6,1.6,2.7,4.261,0.052,3.335,0.191,11.734
3.0,47635.876,-1.6,1.6,2.7,4.2,3.313,3.303,12.768,11.629
5.0,86009.452,-1.6,1.601,2.7,4.2,3.31,3.305,12.756,11.628
7.0,124510.046,-1.6,1.601,2.7,4.2,3.31,3.305,12.758,11.618
9.0,163136.974,-1.6,1.6,2.7,4.2,3.309,3.303,12.755,11.603
11.0,201934.141,-1.6,1.601,2.7,4.2,3.308,3.302,12.754,11.594
13.0,240868.471,-1.6,1.601,2.7,4.2,3.307,3.301,12.751,11.588
15.0,279913.68,-1.6,1.6,2.7,4.2,3.306,3.299,12.748,11.572
17.0,319109.925,-1.6,1.601,2.7,4.2,3.303,3.298,12.744,11.563
19.0,358523.347,-1.6,1.601,2.7,4.2,3.302,3.296,12.741,11.544
21.0,398031.772,-1.6,1.601,2.7,4.2,3.301,3.296,12.74,11.539
23.0,437745.806,-1.6,1.6,2.7,4.2,3.3,3.295,12.737,11.529
25.0,477610.134,-1.6,1.601,2.7,4.2,3.299,3.293,12.738,11.515
27.0,517730.148,-1.6,1.601,2.7,4.2,3.297,3.291,12.732,11.497
29.0,557809.667,-1.6,1.6,2.7,4.2,3.297,3.293,12.733,11.508
31.0,597923.053,-1.6,1.601,2.7,4.2,3.297,3.291,12.731,11.497
33.0,638230.481,-1.6,1.601,2.7,4.2,3.295,3.29,12.727,11.484
35.0,678689.37,-1.6,1.601,2.7,4.2,3.294,3.287,12.725,11.462
37.0,719365.643,-1.6,1.601,2.7,4.2,3.292,3.286,12.721,11.454
39.0,760134.241,-1.6,1.601,2.7,4.2,3.291,3.284,12.718,11.444
41.0,801122.782,-1.6,1.601,2.7,4.2,3.287,3.282,12.712,11.429
43.0,842140.507,-1.6,1.601,2.7,4.2,3.287,3.282,12.711,11.429
45.0,883385.64,-1.6,1.601,2.7,4.2,3.285,3.278,12.706,11.404
47.0,924828.183,-1.6,1.601,2.7,4.2,3.282,3.278,12.699,11.402
49.0,966386.855,-1.6,1.601,2.7,4.2,3.28,3.275,12.692,11.381
51.0,1008040.252,-1.6,1.601,2.7,4.2,3.279,3.273,12.689,11.369
53.0,1044180.306,-1.6,1.601,2.7,4.2,3.277,3.269,12.688,11.34
55.0,1086236.842,-1.6,1.601,2.7,4.2,3.275,3.269,12.681,11.341
57.0,1122525.876,-1.6,1.6,2.7,4.2,3.273,3.266,12.682,11.318
59.0,1164518.378,-1.6,1.601,2.7,4.2,3.275,3.268,12.677,11.335
61.0,1206862.242,-1.6,1.601,2.7,4.2,3.271,3.265,12.672,11.318
63.0,1249316.776,-1.6,1.6,2.7,4.2,3.269,3.263,12.664,11.302
65.0,1291839.252,-1.6,1.601,2.7,4.2,3.269,3.263,12.665,11.302
67.0,1334425.835,-1.6,1.601,2.7,4.2,3.267,3.261,12.66,11.283
69.0,1377518.567,-1.6,1.601,2.7,4.2,3.263,3.255,12.651,11.245
71.0,1420663.721,-1.6,1.601,2.7,4.2,3.261,3.254,12.645,11.244
73.0,1463922.972,-1.6,1.601,2.7,4.2,3.259,3.253,12.641,11.24
75.0,1507366.481,-1.6,1.601,2.7,4.2,3.259,3.251,12.635,11.223
77.0,1550414.699,-1.6,1.601,2.7,4.201,3.26,3.255,12.639,11.254
79.0,1593618.949,-1.6,1.601,2.7,4.2,3.258,3.252,12.633,11.234
81.0,1637017.747,-1.6,1.601,2.7,4.2,3.256,3.249,12.627,11.216
83.0,1680761.252,-1.6,1.601,2.7,4.2,3.253,3.246,12.62,11.196
85.0,1724604.635,-1.6,1.601,2.7,4.2,3.249,3.243,12.612,11.172
87.0,1761751.837,-1.6,1.601,2.7,4.2,2.702,2.699,10.321,9.109
89.0,1805839.359,-1.6,1.601,2.7,4.2,3.244,3.237,12.6,11.14
91.0,1849808.928,-1.6,1.601,2.7,4.2,3.241,3.236,12.588,11.136
93.0,1894010.244,-1.6,1.601,2.7,4.2,3.24,3.234,12.589,11.126
95.0,1938044.781,-1.6,1.601,2.7,4.2,3.238,3.231,12.58,11.108
97.0,1982359.825,-1.6,1.601,2.7,4.2,3.235,3.228,12.574,11.086
99.0,2027141.111,-1.6,1.601,2.7,4.2,3.231,3.227,12.567,11.078
101.0,2070992.072,-1.6,1.601,2.7,4.201,3.238,3.233,12.575,11.121
103.0,2114929.341,-1.6,1.601,2.7,4.201,3.235,3.228,12.564,11.093
105.0,2158830.119,-1.6,1.601,2.7,4.201,3.235,3.229,12.565,11.098
107.0,2202900.59,-1.6,1.601,2.7,4.201,3.233,3.227,12.562,11.089
109.0,2247571.199,-1.6,1.601,2.7,4.2,3.224,3.218,12.542,11.031
111.0,2285028.436,-1.6,1.601,2.7,4.2,2.655,2.652,10.16,8.902
113.0,2330088.568,-1.6,1.601,2.7,4.2,3.22,3.214,12.534,11.009
115.0,2375296.375,-1.6,1.601,2.7,4.2,3.218,3.212,12.527,10.996
117.0,2420708.794,-1.6,1.601,2.7,4.201,3.216,3.21,12.525,10.988
119.0,2466132.683,-1.6,1.601,2.7,4.2,3.211,3.205,12.507,10.958
121.0,2511210.975,-1.6,1.601,2.7,4.2,3.211,3.208,12.506,10.977
123.0,2556325.465,-1.6,1.601,2.7,4.201,3.213,3.207,12.51,10.972
125.0,2601836.792,-1.6,1.601,2.7,4.201,3.209,3.202,12.497,10.949
127.0,2646950.097,-1.6,1.601,2.7,4.201,3.208,3.201,12.493,10.945
129.0,2692588.395,-1.6,1.601,2.7,4.201,3.205,3.2,12.491,10.931
131.0,2730357.893,-1.6,1.601,2.7,4.2,2.621,2.619,10.042,8.755
133.0,2776495.514,-1.6,1.601,2.7,4.2,3.202,3.191,12.479,10.874
135.0,2822676.148,-1.6,1.601,2.7,4.2,3.198,3.192,12.471,10.883
137.0,2868369.625,-1.6,1.601,2.7,4.201,3.201,3.197,12.477,10.918
139.0,2914177.315,-1.6,1.601,2.7,4.201,3.199,3.193,12.468,10.902
141.0,2959864.476,-1.6,1.601,2.7,4.201,3.197,3.191,12.462,10.888
143.0,3005686.437,-1.6,1.601,2.7,4.201,3.197,3.191,12.462,10.888
145.0,3051483.987,-1.6,1.601,2.7,4.201,3.196,3.189,12.455,10.879
147.0,3097721.279,-1.6,1.601,2.7,4.2,3.187,3.181,12.441,10.827
149.0,3144426.89,-1.6,1.601,2.7,4.201,3.185,3.178,12.431,10.811
151.0,3191183.555,-1.6,1.601,2.7,4.2,3.18,3.174,12.417,10.794
153.0,3238116.007,-1.6,1.601,2.7,4.201,3.179,3.172,12.417,10.777
155.0,3285196.564,-1.6,1.601,2.7,4.2,3.177,3.169,12.41,10.767
157.0,3332510.849,-1.6,1.601,2.7,4.2,3.175,3.169,12.405,10.763
159.0,3379533.441,-1.6,1.601,2.7,4.201,3.175,3.17,12.401,10.772
161.0,3426683.798,-1.6,1.601,2.7,4.201,3.173,3.167,12.398,10.751
163.0,3473773.23,-1.6,1.601,2.7,4.201,3.172,3.164,12.391,10.74
165.0,3520897.813,-1.6,1.601,2.7,4.2,3.169,3.162,12.381,10.731
167.0,3555687.953,-1.6,1.601,2.7,4.201,3.166,2.814,12.375,9.784
169.0,3593822.899,-1.6,1.601,2.7,4.201,2.822,2.811,11.098,9.76
171.0,3631777.676,-1.6,1.601,2.7,4.201,2.806,2.804,11.042,9.727
173.0,3669904.442,-1.6,1.601,2.7,4.201,2.806,2.808,11.042,9.742
175.0,3708205.908,-1.6,1.601,2.7,4.201,2.809,2.792,11.055,9.68
177.0,3746463.862,-1.6,1.601,2.7,4.201,2.801,2.802,11.023,9.71
179.0,3784702.103,-1.6,1.601,2.7,4.201,2.805,2.795,11.041,9.685
181.0,3823000.377,-1.6,1.601,2.7,4.201,2.796,2.795,11.006,9.684
183.0,3861097.249,-1.6,1.601,2.7,4.201,2.798,2.788,11.013,9.657
185.0,3899256.197,-1.6,1.601,2.7,4.2,2.793,2.784,10.995,9.64
187.0,3937466.795,-1.6,1.601,2.7,4.201,2.801,2.788,11.023,9.651
189.0,3975623.094,-1.6,1.601,2.7,4.2,2.793,2.786,10.995,9.646
191.0,4014059.138,-1.6,1.601,2.7,4.2,2.792,2.785,10.992,9.642
193.0,4052467.169,-1.6,1.601,2.7,4.2,2.796,2.785,11.006,9.636
195.0,4090919.199,-1.6,1.601,2.7,4.2,2.791,2.784,10.99,9.636
197.0,4120702.041,-1.6,1.601,2.7,4.2,2.203,2.211,8.509,7.509
199.0,4158476.305,-1.6,1.601,2.7,4.201,2.812,2.806,11.057,9.72
201.0,4196608.235,-1.6,1.601,2.699,4.201,2.811,2.807,11.053,9.723
203.0,4234800.918,-1.6,1.601,2.7,4.201,2.813,2.765,11.064,9.57
205.0,4273655.87,-1.599,1.6,2.7,4.2,2.724,2.706,10.769,9.311
207.0,4312595.971,-1.6,1.601,2.7,4.2,2.763,2.764,10.896,9.548
209.0,4351200.502,-1.6,1.601,2.7,4.2,2.778,2.771,10.948,9.577
211.0,4389841.962,-1.6,1.601,2.7,4.2,2.759,2.75,10.883,9.491
213.0,4428339.729,-1.6,1.6,2.7,4.2,2.752,2.738,10.859,9.437
215.0,4466796.045,-1.6,1.601,2.7,4.201,2.74,2.748,10.822,9.476
217.0,4505278.421,-1.6,1.601,2.7,4.2,2.759,2.747,10.882,9.473
219.0,4543734.707,-1.6,1.601,2.7,4.2,2.764,2.757,10.9,9.519
221.0,4582158.172,-1.6,1.601,2.7,4.2,2.767,2.757,10.905,9.514
223.0,4620519.798,-1.6,1.601,2.7,4.2,2.757,2.736,10.873,9.432
225.0,4659140.099,-1.6,1.601,2.7,4.2,2.741,2.734,10.822,9.417
227.0,4697608.755,-1.6,1.601,2.7,4.2,2.735,2.72,10.793,9.36
229.0,4736482.181,-1.6,1.601,2.7,4.2,2.737,2.73,10.809,9.4
231.0,4775127.741,-1.599,1.601,2.695,4.2,2.731,2.718,10.79,9.353
233.0,4813991.508,-1.6,1.601,2.7,4.2,2.732,2.723,10.79,9.375
235.0,4845871.523,0.05,1.601,3.407,4.2,2.728,0.0,10.778,0.0