File: Li-ion_Batteries/UL-PUR_R15-NA10_18650_NCA_23C_2.5-96.5_0.5-0.5C_j_cycle_data.csv
Cycle_Index,Test_Time (s),Min_Current (A),Max_Current (A),Min_Voltage (V),Max_Voltage (V),Charge_Capacity (Ah),Discharge_Capacity (Ah),Charge_Energy (Wh),Discharge_Energy (Wh)
1.0,12928.337,-1.599,1.6,2.9,4.0,1.315,2.618,5.16,9.137
5.0,75790.755,-1.599,1.6,2.9,4.0,2.588,2.592,9.792,9.058
9.0,137915.201,-1.6,1.6,2.9,4.0,2.571,2.579,9.729,9.011
13.0,199724.475,-1.599,1.6,2.9,4.0,2.563,2.56,9.701,8.941
17.0,261347.589,-1.6,1.6,2.9,4.0,2.547,2.544,9.642,8.885
21.0,322767.057,-1.599,1.6,2.9,4.0,2.552,2.55,9.655,8.91
25.0,384012.147,-1.599,1.6,2.9,4.0,2.541,2.547,9.618,8.897
29.0,439790.471,-1.599,1.6,2.9,4.0,2.072,2.061,7.734,7.077
33.0,500979.437,-1.599,1.6,2.9,4.0,2.543,2.542,9.624,8.879
37.0,561992.994,-1.6,1.6,2.9,4.0,2.547,2.539,9.635,8.872
41.0,623080.045,-1.599,1.6,2.9,4.0,2.537,2.534,9.601,8.851
45.0,684007.503,-1.608,1.6,2.897,4.0,2.532,2.525,9.582,8.821
49.0,744884.583,-1.599,1.6,2.9,4.0,2.521,2.523,9.544,8.809
53.0,805698.003,-1.599,1.6,2.9,4.0,2.516,2.523,9.531,8.811
57.0,866648.913,-1.599,1.6,2.9,4.0,2.523,2.511,9.553,8.765
61.0,927417.706,-1.599,1.6,2.9,4.0,2.513,2.511,9.516,8.765
65.0,988164.713,-1.599,1.6,2.9,4.0,2.513,2.516,9.517,8.782
69.0,1048841.213,-1.6,1.6,2.9,4.0,2.504,2.504,9.486,8.738
73.0,1109542.818,-1.599,1.6,2.9,4.0,2.504,2.507,9.487,8.749
77.0,1170209.81,-1.599,1.6,2.9,4.0,2.496,2.494,9.459,8.7
81.0,1230837.626,-1.599,1.6,2.9,4.0,2.491,2.49,9.444,8.688
85.0,1285888.961,-1.599,1.6,2.9,4.0,2.002,2.007,7.484,6.876
89.0,1346579.156,-1.6,1.6,2.9,4.0,2.488,2.489,9.431,8.68
93.0,1401622.613,-1.599,1.6,2.9,4.0,2.478,2.472,9.399,8.622
97.0,1462087.202,-1.599,1.6,2.9,4.0,2.48,2.471,9.404,8.616
101.0,1517012.155,-1.599,1.6,2.9,4.0,2.474,2.474,9.385,8.628
105.0,1571838.782,-1.599,1.6,2.9,4.0,1.965,1.973,7.355,6.755
109.0,1632402.429,-1.599,1.6,2.9,4.0,2.477,2.473,9.393,8.624
113.0,1692913.14,-1.599,1.6,2.9,4.0,2.478,2.476,9.396,8.633
117.0,1753400.192,-1.599,1.6,2.9,4.0,2.454,2.457,9.317,8.562
121.0,1813924.834,-1.6,1.6,2.9,4.0,2.475,2.455,9.389,8.559
125.0,1874379.267,-1.599,1.6,2.9,4.0,2.454,2.459,9.317,8.571
129.0,1929207.846,-1.599,1.6,2.9,4.0,2.464,2.451,9.35,8.541
133.0,1989671.866,-1.599,1.6,2.9,4.0,2.466,2.452,9.356,8.544
137.0,2050007.575,-1.599,1.6,2.9,4.0,2.444,2.452,9.28,8.541
141.0,2110424.702,-1.599,1.6,2.9,4.0,2.455,2.458,9.318,8.566
145.0,2170744.1,-1.599,1.6,2.9,4.076,2.445,2.446,9.284,8.522
149.0,2231093.648,-1.599,1.6,2.9,4.0,2.474,2.454,9.378,8.554
153.0,2291441.104,-1.6,1.6,2.9,4.0,2.457,2.47,9.323,8.607
157.0,2351633.549,-1.599,1.6,2.9,4.0,2.453,2.443,9.308,8.508
161.0,2411935.544,-1.6,1.6,2.9,4.0,2.464,2.47,9.345,8.61
165.0,2472308.022,-1.6,1.6,2.9,4.0,2.466,2.479,9.353,8.641
169.0,2526808.19,-1.599,1.6,2.9,4.0,1.946,1.942,7.282,6.64
173.0,2587100.254,-1.6,1.6,2.9,4.0,2.502,2.452,9.47,8.552
177.0,2647346.463,-1.6,1.6,2.9,4.0,2.437,2.442,9.25,8.502
181.0,2707538.395,-1.599,1.6,2.9,4.0,2.425,2.427,9.216,8.451
185.0,2767785.872,-1.599,1.6,2.9,4.0,2.431,2.417,9.236,8.412
189.0,2828038.871,-1.599,1.6,2.9,4.0,2.422,2.423,9.207,8.437
193.0,2882451.894,-1.599,1.6,2.9,4.0,2.418,2.415,9.195,8.402
197.0,2942672.017,-1.599,1.6,2.9,4.034,2.418,2.41,9.193,8.385
201.0,3002900.474,-1.599,1.6,2.9,4.0,2.409,2.411,9.162,8.387
205.0,3057085.488,-1.599,1.6,2.9,4.0,1.871,1.879,7.017,6.412
209.0,3117474.869,-1.599,1.6,2.9,4.0,2.412,2.43,9.174,8.457
213.0,3171988.91,-1.6,1.6,2.9,4.0,2.431,2.451,9.234,8.535
217.0,3232303.258,-1.6,1.6,2.9,4.0,2.436,2.427,9.252,8.445
221.0,3292577.25,-1.599,1.6,2.9,4.0,2.406,2.39,9.154,8.312
225.0,3352794.137,-1.599,1.6,2.9,4.0,2.4,2.4,9.129,8.348
229.0,3413008.17,-1.599,1.6,2.9,4.0,2.388,2.392,9.091,8.319
233.0,3473174.766,-1.599,1.6,2.9,4.0,2.388,2.384,9.091,8.288
237.0,3533372.382,-1.599,1.6,2.9,4.0,2.401,2.384,9.134,8.293
241.0,3593600.363,-1.599,1.6,2.9,4.0,2.403,2.406,9.139,8.366
245.0,3653817.754,-1.599,1.6,2.9,4.0,2.388,2.387,9.091,8.297
249.0,3713960.373,-1.599,1.6,2.9,4.0,2.392,2.396,9.106,8.335
253.0,3774195.731,-1.599,1.6,2.9,4.0,2.389,2.394,9.094,8.323
257.0,3834301.4,-1.599,1.6,2.9,4.0,2.376,2.385,9.052,8.29
261.0,3894490.296,-1.599,1.6,2.9,4.0,2.39,2.386,9.094,8.292
265.0,3954711.334,-1.599,1.6,2.9,4.0,2.399,2.396,9.127,8.331
269.0,4014774.317,-1.599,1.6,2.9,4.0,2.378,2.385,9.058,8.289
273.0,4073548.604,-1.599,1.601,2.9,4.0,2.368,2.367,9.021,8.224
277.0,4133546.99,-1.599,1.6,2.9,4.0,2.37,2.376,9.031,8.259
281.0,4193659.657,-1.599,1.6,2.9,4.0,2.38,2.39,9.064,8.308
285.0,4253781.386,-1.599,1.6,2.9,4.0,2.384,2.381,9.076,8.275
289.0,4313904.672,-1.599,1.6,2.9,4.0,2.358,2.37,8.988,8.23
293.0,4373948.961,-1.599,1.6,2.9,4.0,2.374,2.368,9.043,8.228
297.0,4434156.624,-1.599,1.6,2.9,4.0,2.373,2.372,9.033,8.238
301.0,4494234.053,-1.599,1.6,2.9,4.0,2.36,2.365,8.997,8.215
305.0,4554334.557,-1.599,1.6,2.9,4.0,2.366,2.357,9.016,8.182
309.0,4602008.89,-1.599,1.6,2.9,4.0,2.362,2.359,9.003,8.193
313.0,4662148.154,-1.599,1.6,2.9,4.0,2.36,2.362,8.996,8.199
317.0,4722233.736,-1.599,1.6,2.9,4.0,2.368,2.364,9.023,8.212
321.0,4782446.445,-1.599,1.6,2.9,4.0,2.363,2.361,9.005,8.198
325.0,4836364.605,-1.599,1.6,2.9,4.0,2.358,2.345,8.992,8.138
329.0,4896431.59,-1.599,1.6,2.9,4.0,2.363,2.36,9.003,8.197
333.0,4950312.855,-1.599,1.6,2.9,4.0,2.356,2.357,8.983,8.182
337.0,5010390.37,-1.599,1.6,2.9,4.0,2.353,2.339,8.976,8.115
341.0,5070789.749,-1.599,1.6,2.9,4.0,2.351,2.337,8.965,8.106
345.0,5130952.193,-1.599,1.6,2.9,4.0,2.345,2.347,8.946,8.143
349.0,5184822.894,-1.599,1.6,2.9,4.0,2.34,2.343,8.93,8.129
353.0,5244998.691,-1.599,1.6,2.9,4.0,2.347,2.332,8.952,8.086
357.0,5298734.434,-1.599,1.6,2.9,4.0,1.782,1.792,6.7,6.092
361.0,5358986.565,-1.599,1.6,2.9,4.0,2.339,2.343,8.927,8.127
365.0,5412694.258,-1.599,1.6,2.9,4.0,1.776,1.777,6.675,6.034
369.0,5472936.602,-1.599,1.6,2.9,4.0,2.34,2.345,8.929,8.136
373.0,5533128.585,-1.599,1.6,2.9,4.0,2.337,2.34,8.918,8.117
377.0,5586852.37,-1.599,1.6,2.9,4.0,2.347,2.336,8.952,8.101
381.0,5647105.119,-1.599,1.6,2.9,4.0,2.348,2.34,8.963,8.118
385.0,5707247.64,-1.599,1.6,2.9,4.0,2.334,2.336,8.909,8.103
389.0,5767343.571,-1.599,1.6,2.9,4.0,2.335,2.328,8.91,8.072
393.0,5827437.952,-1.599,1.6,2.9,4.0,2.334,2.334,8.909,8.095
397.0,5881048.449,-1.599,1.6,2.9,4.0,1.769,1.782,6.653,6.055
401.0,5921908.655,-1.599,1.6,2.9,4.0,2.334,2.337,8.912,8.104
405.0,5982106.742,-1.599,1.6,2.9,4.0,2.326,2.33,8.881,8.077
409.0,6042314.798,-1.599,1.6,2.9,4.0,2.315,2.325,8.842,8.058
413.0,6102321.172,-1.599,1.6,2.9,4.0,2.328,2.297,8.885,7.961
417.0,6162435.783,-1.599,1.6,2.9,4.0,2.324,2.321,8.875,8.047
421.0,6222581.916,-1.599,1.6,2.9,4.0,2.312,2.312,8.834,8.012
425.0,6282728.979,-1.599,1.6,2.9,4.0,2.314,2.308,8.842,7.994
429.0,6342862.694,-1.599,1.6,2.9,4.0,2.313,2.308,8.837,7.995
433.0,6402959.339,-1.599,1.6,2.9,4.0,2.3,2.31,8.795,8.003
437.0,6462968.313,-1.599,1.6,2.9,4.0,2.299,2.308,8.789,7.994
441.0,6523057.073,-1.599,1.6,2.9,4.0,2.305,2.312,8.81,8.008
445.0,6583028.789,-1.599,1.6,2.9,4.0,2.307,2.298,8.813,7.961
449.0,6643175.499,-1.599,1.6,2.9,4.0,2.29,2.299,8.757,7.959
453.0,6703275.916,-1.599,1.601,2.9,4.0,2.302,2.279,8.8,7.895
457.0,6763439.653,-1.599,1.6,2.9,4.0,2.296,2.298,8.778,7.956
461.0,6823543.238,-1.599,1.6,2.9,4.0,2.292,2.297,8.765,7.95
465.0,6883680.938,-1.599,1.6,2.9,4.0,2.29,2.266,8.758,7.838
469.0,6943777.796,-1.599,1.6,2.9,4.0,2.285,2.287,8.744,7.917
473.0,7003895.818,-1.599,1.6,2.9,4.0,2.278,2.283,8.718,7.9
477.0,7063885.454,-1.599,1.6,2.9,4.0,2.266,2.286,8.682,7.908
481.0,7117309.63,-1.599,1.6,2.9,4.0,2.283,2.284,8.734,7.907
485.0,7170722.928,-1.599,1.6,2.9,4.0,2.268,2.284,8.686,7.902
489.0,7230812.68,-1.599,1.6,2.9,4.0,2.282,2.268,8.733,7.841
493.0,7290876.995,-1.599,1.6,2.9,4.0,2.281,2.28,8.73,7.891
497.0,7351083.66,-1.599,1.6,2.9,4.0,2.271,2.277,8.695,7.88
501.0,7411181.295,-1.599,1.6,2.9,4.0,2.257,2.263,8.648,7.826
505.0,7471096.439,-1.599,1.6,2.9,4.0,2.269,2.27,8.687,7.854
509.0,7531148.795,-1.599,1.6,2.9,4.0,2.271,2.273,8.694,7.862
513.0,7591200.178,-1.599,1.6,2.9,4.0,2.264,2.268,8.669,7.843
517.0,7651122.758,-1.599,1.6,2.9,4.0,2.27,2.245,8.691,7.765
521.0,7711170.007,-1.599,1.6,2.9,4.0,2.262,2.262,8.664,7.824
525.0,7771036.64,-1.599,1.6,2.9,4.0,2.247,2.253,8.613,7.783
529.0,7831094.621,-1.599,1.6,2.9,4.0,2.262,2.242,8.662,7.748
533.0,7891220.76,-1.599,1.6,2.9,4.0,2.256,2.264,8.643,7.83
537.0,7951330.879,-1.599,1.6,2.9,4.0,2.239,2.258,8.588,7.804
541.0,8011331.679,-1.599,1.6,2.9,4.0,2.245,2.229,8.61,7.7
545.0,8071200.937,-1.599,1.6,2.9,4.0,2.24,2.253,8.587,7.787
549.0,8131190.037,-1.599,1.6,2.9,4.0,2.245,2.25,8.608,7.777
553.0,8191196.24,-1.599,1.6,2.9,4.0,2.222,2.232,8.529,7.709
557.0,8251167.127,-1.599,1.6,2.9,4.0,2.243,2.251,8.6,7.779
561.0,8311279.984,-1.599,1.6,2.9,4.0,2.24,2.244,8.589,7.753
565.0,8371349.078,-1.599,1.6,2.9,4.0,2.238,2.221,8.582,7.663
569.0,8431152.957,-1.599,1.6,2.9,4.0,2.244,2.221,8.603,7.675
573.0,8484232.494,-1.599,1.6,2.9,4.0,2.246,2.237,8.614,7.727
577.0,8537282.129,-1.599,1.6,2.9,4.0,2.215,2.234,8.501,7.713
581.0,8597252.464,-1.599,1.6,2.9,4.0,2.234,2.238,8.569,7.731
585.0,8657136.523,-1.599,1.6,2.9,4.0,2.229,2.219,8.551,7.674
589.0,8710090.229,-1.599,1.6,2.899,4.0,2.219,2.229,8.528,7.698
593.0,8770102.346,-1.599,1.6,2.9,4.0,2.228,2.239,8.549,7.732
597.0,8830087.43,-1.599,1.6,2.9,4.0,2.224,2.228,8.534,7.692
601.0,8882941.253,-1.599,1.6,2.9,4.0,2.212,2.221,8.502,7.667
605.0,8943031.093,-1.599,1.6,2.9,4.0,2.226,2.222,8.542,7.679
609.0,9003091.735,-1.599,1.6,2.9,4.0,2.193,2.216,8.43,7.651
613.0,9063125.573,-1.599,1.6,2.9,4.0,2.192,2.191,8.427,7.558
617.0,9117830.959,-1.599,1.6,3.406,4.0,2.209,0.035,8.484,0.136