File: Li-ion_Batteries/UL-PUR_N20-NA6_18650_NCA_23C_0-100_0.5-0.5C_f_cycle_data.csv
Cycle_Index,Test_Time (s),Min_Current (A),Max_Current (A),Min_Voltage (V),Max_Voltage (V),Charge_Capacity (Ah),Discharge_Capacity (Ah),Charge_Energy (Wh),Discharge_Energy (Wh)
1.0,8851.63,-1.6,1.6,2.7,4.191,0.011,3.332,0.023,11.7
3.0,47444.14,-1.6,1.601,2.7,4.2,3.325,3.318,12.821,11.665
5.0,80950.769,-1.6,1.601,2.7,4.2,2.843,2.843,10.798,9.819
7.0,119812.159,-1.6,1.601,2.7,4.2,3.322,3.317,12.812,11.648
9.0,158771.759,-1.6,1.601,2.7,4.2,3.322,3.316,12.813,11.64
11.0,197881.17,-1.6,1.601,2.7,4.2,3.321,3.317,12.812,11.634
13.0,237098.652,-1.6,1.601,2.7,4.2,3.319,3.316,12.81,11.626
15.0,276475.362,-1.6,1.601,2.7,4.2,3.319,3.314,12.809,11.609
17.0,315993.458,-1.6,1.601,2.7,4.2,3.317,3.314,12.807,11.603
19.0,355679.271,-1.6,1.601,2.7,4.2,3.317,3.311,12.806,11.583
21.0,395478.001,-1.6,1.601,2.7,4.2,3.315,3.311,12.802,11.577
23.0,429943.694,-1.6,1.601,2.7,4.2,3.314,3.309,12.804,11.565
25.0,469959.749,-1.6,1.601,2.7,4.2,3.313,3.308,12.799,11.554
27.0,510204.318,-1.6,1.601,2.7,4.2,3.31,3.305,12.796,11.535
29.0,550560.265,-1.6,1.601,2.7,4.2,3.31,3.305,12.795,11.532
31.0,590874.423,-1.6,1.601,2.7,4.2,3.309,3.304,12.789,11.523
33.0,631413.703,-1.6,1.601,2.7,4.2,3.308,3.303,12.79,11.51
35.0,672075.885,-1.6,1.601,2.7,4.2,3.306,3.301,12.784,11.498
37.0,713047.066,-1.6,1.601,2.7,4.2,3.302,3.298,12.777,11.479
39.0,754116.14,-1.6,1.601,2.7,4.2,3.302,3.297,12.776,11.472
41.0,795356.454,-1.6,1.601,2.7,4.2,3.298,3.294,12.769,11.447
43.0,836662.403,-1.6,1.601,2.7,4.2,3.297,3.294,12.765,11.447
45.0,878100.731,-1.6,1.601,2.7,4.2,3.296,3.29,12.759,11.426
47.0,919796.294,-1.6,1.601,2.7,4.2,3.293,3.289,12.758,11.417
49.0,955314.778,-1.6,1.601,2.7,4.2,3.291,3.287,12.752,11.402
51.0,997292.902,-1.6,1.601,2.7,4.2,3.289,3.284,12.746,11.381
53.0,1039686.737,-1.6,1.601,2.7,4.2,3.285,3.28,12.739,11.351
55.0,1082195.551,-1.6,1.601,2.7,4.2,3.284,3.279,12.734,11.345
57.0,1124891.86,-1.6,1.601,2.7,4.2,3.28,3.275,12.726,11.321
59.0,1167474.176,-1.6,1.601,2.7,4.2,3.282,3.276,12.726,11.329
61.0,1210277.554,-1.6,1.601,2.7,4.2,3.278,3.274,12.719,11.314
63.0,1253328.605,-1.6,1.601,2.7,4.2,3.277,3.271,12.717,11.294
65.0,1296425.918,-1.6,1.601,2.7,4.2,3.275,3.27,12.708,11.286
67.0,1339763.392,-1.6,1.601,2.7,4.2,3.272,3.266,12.703,11.262
69.0,1383639.422,-1.6,1.601,2.7,4.2,3.268,3.263,12.701,11.231
71.0,1427591.474,-1.6,1.601,2.7,4.2,3.266,3.26,12.692,11.219
73.0,1471704.344,-1.6,1.601,2.7,4.2,3.264,3.259,12.686,11.208
75.0,1516191.542,-1.6,1.601,2.7,4.2,3.262,3.257,12.685,11.193
77.0,1560159.108,-1.6,1.601,2.7,4.2,3.265,3.26,12.681,11.215
79.0,1597105.051,-1.6,1.601,2.7,4.2,2.691,2.689,10.279,9.054
81.0,1634418.849,-1.6,1.601,2.7,4.2,3.261,3.254,12.675,11.169
83.0,1679927.962,-1.6,1.601,2.7,4.2,3.254,3.248,12.659,11.132
85.0,1726107.441,-1.6,1.601,2.7,4.2,3.249,3.241,12.647,11.097
87.0,1772607.366,-1.6,1.601,2.7,4.2,3.241,3.233,12.623,11.061
89.0,1819489.726,-1.6,1.601,2.7,4.2,3.233,3.226,12.603,11.022
91.0,1865182.864,-1.6,1.602,2.7,4.2,3.227,3.219,12.579,10.999
93.0,1912100.615,-1.6,1.601,2.7,4.2,3.221,3.212,12.558,10.97
95.0,1958989.945,-1.6,1.601,2.7,4.2,3.213,3.206,12.531,10.942
97.0,1997927.798,-1.6,1.601,2.7,4.2,3.211,3.197,12.533,10.886
99.0,2045293.961,-1.6,1.601,2.7,4.2,3.201,3.197,12.5,10.912
101.0,2091984.299,-1.601,1.601,2.7,4.2,3.201,3.194,12.48,10.905
103.0,2138714.274,-1.6,1.601,2.7,4.2,3.195,3.19,12.471,10.89
105.0,2185632.845,-1.6,1.601,2.7,4.201,3.191,3.185,12.454,10.862
107.0,2232848.688,-1.601,1.601,2.7,4.2,3.183,3.174,12.426,10.799
109.0,2280845.275,-1.6,1.601,2.7,4.2,3.176,3.168,12.414,10.769
111.0,2320001.087,-1.6,1.601,2.7,4.2,3.176,3.164,12.426,10.748
113.0,2368449.813,-1.6,1.601,2.7,4.2,3.163,3.156,12.378,10.715
115.0,2416710.152,-1.6,1.601,2.7,4.2,3.159,3.151,12.36,10.698
117.0,2465350.875,-1.6,1.601,2.7,4.2,3.152,3.144,12.338,10.657
119.0,2513726.835,-1.6,1.601,2.7,4.2,3.15,3.144,12.326,10.675
121.0,2562193.8,-1.6,1.601,2.7,4.2,3.146,3.138,12.311,10.643
123.0,2610660.808,-1.6,1.601,2.7,4.2,3.14,3.133,12.291,10.62
125.0,2659082.969,-1.6,1.601,2.7,4.2,3.136,3.128,12.277,10.605
127.0,2707787.881,-1.6,1.601,2.7,4.2,3.132,3.124,12.266,10.583
129.0,2756773.131,-1.6,1.601,2.7,4.2,3.127,3.119,12.253,10.556
131.0,2806257.51,-1.6,1.601,2.7,4.2,3.118,3.111,12.228,10.515
133.0,2855454.732,-1.6,1.601,2.7,4.2,3.117,3.112,12.221,10.535
135.0,2904368.277,-1.6,1.601,2.7,4.2,3.114,3.107,12.204,10.515
137.0,2953151.951,-1.6,1.601,2.7,4.2,3.11,3.104,12.19,10.504
139.0,3001878.956,-1.6,1.601,2.7,4.2,3.106,3.099,12.173,10.489
141.0,3050793.394,-1.6,1.601,2.7,4.2,3.104,3.096,12.162,10.469
143.0,3100338.817,-1.6,1.601,2.7,4.2,3.092,3.086,12.139,10.413
145.0,3150164.748,-1.6,1.601,2.7,4.2,3.088,3.081,12.124,10.386
147.0,3199967.383,-1.6,1.601,2.7,4.2,3.081,3.074,12.101,10.36
149.0,3249973.41,-1.6,1.601,2.7,4.2,3.074,3.068,12.079,10.329
151.0,3300242.742,-1.6,1.601,2.7,4.2,3.07,3.063,12.063,10.314
153.0,3339928.244,-1.6,1.601,2.7,4.2,2.383,2.388,9.184,7.847
155.0,3379470.93,-1.6,1.601,2.7,4.2,3.07,3.056,12.072,10.29
157.0,3429870.111,-1.6,1.601,2.7,4.2,3.054,3.046,12.007,10.247
159.0,3480304.986,-1.6,1.601,2.7,4.2,3.05,3.043,11.994,10.236
161.0,3530593.785,-1.6,1.601,2.7,4.2,3.045,3.037,11.973,10.213
163.0,3570278.492,-1.6,1.601,2.7,4.2,2.684,2.664,10.621,9.184
165.0,3608794.407,-1.6,1.601,2.7,4.2,2.66,2.662,10.53,9.172
167.0,3647097.102,-1.6,1.601,2.7,4.2,2.655,2.647,10.512,9.118
169.0,3685278.843,-1.6,1.601,2.653,4.2,2.648,2.64,10.479,9.091
171.0,3723349.259,-1.6,1.601,2.7,4.2,2.632,2.626,10.424,9.043
173.0,3761665.765,-1.6,1.601,2.7,4.2,2.636,2.63,10.437,9.054
175.0,3790175.384,-1.6,1.601,2.546,4.2,1.96,1.971,7.605,6.635
177.0,3828616.517,-1.601,1.601,2.7,4.2,2.624,2.623,10.397,9.025
179.0,3866521.018,-1.6,1.601,2.7,4.2,2.621,2.608,10.381,8.976
181.0,3904581.093,-1.6,1.601,2.7,4.2,2.618,2.607,10.372,8.968
183.0,3942528.548,-1.6,1.601,2.7,4.2,2.62,2.603,10.381,8.957
185.0,3980432.311,-1.6,1.601,2.548,4.2,2.607,2.598,10.332,8.936
187.0,4018369.407,-1.6,1.601,2.7,4.2,2.608,2.597,10.337,8.933
189.0,4056223.242,-1.6,1.601,2.7,4.2,2.599,2.592,10.305,8.91
191.0,4094154.967,-1.6,1.601,2.7,4.2,2.605,2.597,10.328,8.934
193.0,4131853.354,-1.601,1.601,2.7,4.201,2.615,2.545,10.358,8.772
195.0,4169666.347,-1.6,1.601,2.7,4.201,2.624,2.617,10.388,9.011
197.0,4207526.514,-1.6,1.601,2.7,4.201,2.624,2.627,10.388,9.047
199.0,4245417.722,-1.6,1.601,2.7,4.2,2.608,2.534,10.318,8.672
201.0,4283658.456,-1.6,1.6,2.7,4.2,2.525,2.541,10.051,8.688
203.0,4321673.393,-1.6,1.601,2.7,4.2,2.577,2.577,10.232,8.847
205.0,4359399.928,-1.6,1.601,2.7,4.2,2.585,2.565,10.256,8.803
207.0,4397460.452,-1.6,1.601,2.7,4.2,2.561,2.561,10.177,8.786
209.0,4435469.029,-1.6,1.601,2.7,4.2,2.551,2.541,10.14,8.702
211.0,4473495.996,-1.6,1.601,2.7,4.2,2.548,2.553,10.124,8.75
213.0,4511430.125,-1.6,1.601,2.7,4.2,2.562,2.561,10.178,8.777
215.0,4549311.31,-1.6,1.601,2.7,4.2,2.567,2.572,10.196,8.823
217.0,4587333.518,-1.6,1.601,2.7,4.2,2.577,2.567,10.226,8.803
219.0,4625177.409,-1.6,1.601,2.7,4.2,2.56,2.536,10.165,8.68
221.0,4663268.181,-1.6,1.601,2.7,4.2,2.544,2.538,10.117,8.691
222.0,4681251.872,-1.6,1.601,3.117,4.2,2.541,2.176,10.105,7.623