File: Li-ion_Batteries/UL-PUR_R20-EX2_18650_NCA_23C_2.5-96.5_0.5-0.5C_b_cycle_data.csv
Cycle_Index,Test_Time (s),Min_Current (A),Max_Current (A),Min_Voltage (V),Max_Voltage (V),Charge_Capacity (Ah),Discharge_Capacity (Ah),Charge_Energy (Wh),Discharge_Energy (Wh)
1.0,9140.667,-1.6,1.6,2.9,4.246,0.002,3.306,0.003,11.662
6.0,95180.368,-1.6,1.601,2.9,4.0,2.743,2.742,10.337,9.481
11.0,175581.9,-1.6,1.601,2.9,4.0,2.739,2.737,10.321,9.463
16.0,261263.723,-1.6,1.601,2.9,4.0,2.736,2.733,10.312,9.445
21.0,347078.795,-1.6,1.601,2.9,4.0,2.732,2.73,10.299,9.43
26.0,433019.977,-1.6,1.601,2.9,4.0,2.73,2.726,10.29,9.414
31.0,519235.082,-1.6,1.601,2.9,4.0,2.728,2.726,10.284,9.412
36.0,599772.515,-1.6,1.601,2.9,4.0,2.725,2.722,10.276,9.396
41.0,686081.09,-1.6,1.601,2.9,4.0,2.721,2.719,10.264,9.378
46.0,772514.786,-1.6,1.601,2.9,4.0,2.719,2.716,10.255,9.365
51.0,859291.856,-1.6,1.601,2.9,4.0,2.715,2.712,10.245,9.34
56.0,946295.222,-1.6,1.601,2.9,4.0,2.713,2.709,10.239,9.331
61.0,1033922.228,-1.6,1.601,2.9,4.0,2.71,2.707,10.232,9.317
66.0,1121451.049,-1.6,1.601,2.9,4.0,2.71,2.706,10.227,9.318
71.0,1209150.681,-1.6,1.601,2.9,4.0,2.706,2.703,10.221,9.299
76.0,1296800.178,-1.6,1.601,2.9,4.0,2.704,2.701,10.214,9.289
81.0,1385131.536,-1.6,1.601,2.9,4.0,2.701,2.698,10.205,9.271
86.0,1473562.291,-1.6,1.601,2.9,4.0,2.699,2.696,10.199,9.265
91.0,1561473.763,-1.6,1.601,2.9,4.0,2.698,2.695,10.194,9.262
96.0,1649905.715,-1.6,1.601,2.9,4.0,2.696,2.693,10.189,9.249
101.0,1738988.535,-1.6,1.601,2.9,4.0,2.692,2.689,10.18,9.231
106.0,1828486.334,-1.6,1.601,2.9,4.0,2.69,2.687,10.174,9.217
111.0,1917924.652,-1.6,1.601,2.9,4.0,2.688,2.684,10.165,9.204
116.0,2007793.766,-1.6,1.601,2.9,4.001,2.688,2.687,10.165,9.225
121.0,2096668.965,-1.6,1.601,2.9,4.001,2.688,2.686,10.161,9.225
126.0,2185641.278,-1.6,1.601,2.9,4.001,2.684,2.678,10.15,9.178
131.0,2276398.518,-1.6,1.601,2.9,4.0,2.677,2.674,10.137,9.156
136.0,2367329.248,-1.6,1.601,2.9,4.0,2.675,2.672,10.132,9.15
141.0,2458704.244,-1.6,1.601,2.9,4.0,2.673,2.671,10.125,9.141
146.0,2549362.915,-1.6,1.601,2.9,4.001,2.672,2.668,10.118,9.134
151.0,2640394.824,-1.6,1.601,2.9,4.001,2.668,2.665,10.107,9.12
156.0,2725494.085,-1.6,1.601,2.9,4.0,2.094,2.093,7.815,7.0
161.0,2811102.025,-1.6,1.601,2.9,4.0,2.095,2.097,7.82,7.018
166.0,2902513.433,-1.6,1.601,2.9,4.001,2.662,2.659,10.087,9.096
171.0,2987225.421,-1.6,1.601,2.9,4.001,2.662,2.659,10.089,9.102
176.0,3079484.844,-1.6,1.601,2.9,4.001,2.655,2.652,10.068,9.061
181.0,3165405.276,-1.6,1.601,2.9,4.001,2.652,2.648,10.062,9.037
186.0,3258514.001,-1.6,1.601,2.9,4.0,2.648,2.644,10.05,9.023
191.0,3351580.122,-1.6,1.601,2.9,4.001,2.648,2.645,10.046,9.03
196.0,3444583.973,-1.6,1.601,2.9,4.001,2.644,2.642,10.035,9.017
201.0,3525609.37,-1.6,1.601,2.9,4.0,1.809,1.824,6.795,6.19
206.0,3603000.615,-1.6,1.601,2.9,4.001,2.392,2.38,9.124,8.251
211.0,3673611.699,-1.6,1.601,2.9,4.001,2.377,2.386,9.071,8.264
216.0,3750860.997,-1.6,1.601,2.9,4.001,2.387,2.379,9.104,8.242
221.0,3827917.911,-1.6,1.601,2.9,4.001,2.387,2.377,9.103,8.234
226.0,3904933.557,-1.6,1.601,2.9,4.001,2.382,2.37,9.089,8.215
231.0,3981988.355,-1.6,1.601,2.9,4.001,2.379,2.381,9.075,8.246
236.0,4052183.716,-1.6,1.601,2.9,4.001,2.38,2.369,9.082,8.21
241.0,4128799.48,-1.6,1.601,2.9,4.001,2.398,2.392,9.137,8.293
246.0,4205541.346,-1.6,1.601,2.9,4.0,2.356,2.318,9.003,8.019
251.0,4282433.96,-1.6,1.601,2.9,4.0,2.36,2.358,9.011,8.167
256.0,4359178.884,-1.6,1.601,2.9,4.0,2.346,2.344,8.964,8.115
261.0,4436177.108,-1.6,1.601,2.9,4.0,2.344,2.349,8.957,8.132
266.0,4512894.09,-1.6,1.601,2.9,4.001,2.355,2.346,8.992,8.12
271.0,4589689.39,-1.6,1.601,2.9,4.0,2.339,2.328,8.944,8.056
276.0,4666590.011,-1.6,1.601,2.9,4.0,2.32,2.313,8.877,7.998
281.0,4736557.403,-1.6,1.601,2.9,4.0,2.334,2.315,8.928,8.005
286.0,4813558.974,-1.6,1.601,2.9,4.0,2.323,2.31,8.885,7.987
291.0,4890516.077,-1.6,1.601,2.9,4.0,2.326,2.313,8.898,8.001
296.0,4967522.847,-1.6,1.601,2.9,4.0,2.311,2.306,8.846,7.975
301.0,5037598.196,-1.6,1.601,2.9,4.0,2.312,2.292,8.849,7.922
306.0,5114712.979,-1.6,1.601,2.9,4.0,2.297,2.296,8.798,7.937
311.0,5191879.544,-1.6,1.601,2.9,4.0,2.295,2.292,8.792,7.922
316.0,5269010.984,-1.6,1.601,2.9,4.0,2.294,2.286,8.786,7.901
321.0,5346109.054,-1.6,1.601,2.9,4.0,2.294,2.286,8.787,7.897
326.0,5423277.748,-1.6,1.601,2.9,4.0,2.285,2.289,8.757,7.916
331.0,5500490.729,-1.6,1.601,2.899,4.0,2.284,2.277,8.751,7.867
336.0,5577710.965,-1.6,1.601,2.9,4.0,2.285,2.276,8.756,7.863
341.0,5654867.819,-1.6,1.601,2.9,4.0,2.28,2.276,8.738,7.861
346.0,5732109.387,-1.6,1.601,2.9,4.0,2.277,2.268,8.728,7.834
351.0,5809329.148,-1.6,1.601,2.9,4.0,2.273,2.266,8.717,7.825
356.0,5886555.814,-1.6,1.601,2.9,4.0,2.272,2.265,8.71,7.822
361.0,5963843.277,-1.6,1.601,2.898,4.0,2.265,2.261,8.688,7.81
366.0,6041278.776,-1.6,1.601,2.9,4.0,2.28,2.258,8.739,7.795
371.0,6118512.738,-1.6,1.601,2.9,4.0,2.262,2.255,8.676,7.786
376.0,6195763.966,-1.6,1.601,2.9,4.0,2.253,2.25,8.647,7.767
381.0,6265603.333,-1.6,1.601,2.9,4.0,2.254,2.246,8.651,7.754
386.0,6342881.94,-1.6,1.601,2.9,4.0,2.254,2.248,8.648,7.759
391.0,6420092.277,-1.6,1.601,2.9,4.0,2.254,2.25,8.649,7.766
396.0,6489746.976,-1.6,1.601,2.9,4.0,1.617,1.629,6.105,5.493
401.0,6567194.874,-1.6,1.601,2.9,4.0,2.246,2.238,8.622,7.723
406.0,6636877.056,-1.6,1.601,2.9,4.0,2.245,2.236,8.616,7.716
411.0,6706803.916,-1.736,1.601,2.9,4.0,2.246,2.246,8.621,7.75
416.0,6784161.073,-1.6,1.601,2.9,4.0,2.234,2.234,8.579,7.707
421.0,6861469.911,-1.6,1.601,2.9,4.0,2.237,2.232,8.591,7.704
426.0,6938814.747,-1.6,1.601,2.9,4.0,2.236,2.24,8.584,7.731
431.0,7016124.477,-1.6,1.601,2.9,4.0,2.222,2.233,8.538,7.707
436.0,7093337.403,-1.6,1.601,2.9,4.0,2.226,2.227,8.552,7.684
441.0,7170512.306,-1.6,1.601,2.9,4.0,2.223,2.213,8.541,7.631
446.0,7247704.661,-1.6,1.601,2.9,4.0,2.226,2.219,8.544,7.657
451.0,7324972.737,-1.6,1.601,2.9,4.0,2.212,2.211,8.504,7.625
456.0,7402240.851,-1.6,1.601,2.9,4.0,2.213,2.204,8.505,7.598
461.0,7471869.639,-1.6,1.601,2.9,4.0,1.6,1.609,6.045,5.424
466.0,7549136.271,-1.6,1.601,2.899,4.0,2.218,2.218,8.52,7.652
471.0,7626249.302,-1.6,1.601,2.9,4.0,2.215,2.209,8.513,7.619
476.0,7695826.464,-1.6,1.601,2.9,4.0,2.203,2.194,8.472,7.562
481.0,7773186.489,-1.6,1.601,2.9,4.0,2.198,2.194,8.452,7.563
486.0,7850254.133,-1.6,1.601,2.9,4.001,2.193,2.19,8.435,7.545
491.0,7927444.63,-1.6,1.601,2.9,4.0,2.192,2.181,8.432,7.514
496.0,8004629.924,-1.6,1.601,2.9,4.0,2.205,2.198,8.475,7.58
501.0,8081594.568,-1.6,1.601,2.9,4.0,2.203,2.201,8.468,7.589
506.0,8158636.486,-1.6,1.601,2.9,4.0,2.208,2.195,8.487,7.568
511.0,8228083.62,-1.6,1.601,2.9,4.0,2.183,2.177,8.403,7.5
516.0,8305284.482,-1.6,1.601,2.9,4.0,2.177,2.176,8.38,7.495
521.0,8382440.073,-1.6,1.601,2.9,4.0,2.177,2.168,8.382,7.467
526.0,8459508.193,-1.6,1.601,2.9,4.0,2.186,2.178,8.41,7.507
531.0,8536550.827,-1.6,1.601,2.9,4.0,2.182,2.177,8.396,7.504
536.0,8613475.055,-1.6,1.601,2.9,4.0,2.184,2.18,8.4,7.513
541.0,8690304.995,-1.863,1.601,2.9,4.0,2.181,2.181,8.39,7.519
546.0,8767158.359,-5.059,1.601,2.9,4.0,2.179,2.178,8.384,7.507
551.0,8844066.476,-1.6,1.601,2.9,4.0,2.174,2.169,8.367,7.475
556.0,8921071.799,-1.6,1.601,2.9,4.0,2.152,2.153,8.292,7.409
561.0,8990291.219,-1.6,1.601,2.9,4.0,2.143,2.139,8.262,7.358
566.0,9067567.206,-1.6,1.601,2.9,4.0,2.149,2.14,8.282,7.364
571.0,9144724.6,-1.6,1.601,2.9,4.0,2.14,2.132,8.25,7.335
576.0,9221868.297,-1.6,1.601,2.9,4.0,2.139,2.132,8.247,7.332
581.0,9298977.368,-1.6,1.601,2.9,4.0,2.147,2.139,8.273,7.362
586.0,9368132.803,-1.6,1.601,2.9,4.0,2.147,2.144,8.273,7.382
591.0,9445090.991,-1.6,1.601,2.9,4.0,2.135,2.13,8.232,7.329
596.0,9521964.074,-1.6,1.601,2.9,4.0,2.133,2.136,8.223,7.352
601.0,9598839.606,-1.6,1.601,2.9,4.0,2.138,2.14,8.243,7.366
606.0,9675517.578,-1.6,1.601,2.9,4.0,2.133,2.124,8.224,7.309
611.0,9752361.214,-1.6,1.601,2.9,4.0,2.134,2.13,8.227,7.33
616.0,9821266.007,-1.6,1.601,2.9,4.0,2.126,2.125,8.2,7.309
621.0,9898012.345,-1.6,1.601,2.9,4.0,2.135,2.131,8.227,7.336
626.0,9966870.698,-1.6,1.601,2.9,4.0,2.156,2.127,8.314,7.317
631.0,10043667.688,-1.6,1.601,2.9,4.0,2.129,2.128,8.21,7.326
636.0,10120312.407,-1.6,1.601,2.899,4.0,2.125,2.126,8.195,7.318
641.0,10196891.495,-1.6,1.601,2.9,4.0,2.126,2.118,8.199,7.289
646.0,10273417.098,-1.6,1.601,2.9,4.0,2.138,2.112,8.24,7.27
651.0,10350005.747,-1.6,1.601,2.899,4.0,2.116,2.115,8.163,7.276
656.0,10426459.032,-1.6,1.601,2.9,4.0,2.121,2.113,8.182,7.269
661.0,10502771.686,-1.6,1.601,2.9,4.0,2.118,2.115,8.17,7.279
666.0,10579097.257,-1.6,1.601,2.9,4.0,2.113,2.101,8.153,7.226
671.0,10655712.875,-1.6,1.601,2.9,4.0,2.097,2.099,8.097,7.214
676.0,10732238.066,-1.6,1.601,2.9,4.0,2.091,2.097,8.077,7.207
681.0,10808778.486,-1.6,1.601,2.9,4.0,2.084,2.092,8.054,7.191
686.0,10877267.128,-1.6,1.601,2.9,4.0,2.121,2.087,8.185,7.172
691.0,10953729.148,-1.6,1.601,2.9,4.0,2.097,2.09,8.098,7.184
696.0,11030115.096,-4.029,1.601,2.9,4.0,2.097,2.095,8.097,7.202
701.0,11106369.263,-1.6,1.601,2.9,4.0,2.095,2.09,8.091,7.184
706.0,11174574.155,-1.6,1.601,2.9,4.0,2.093,2.084,8.082,7.16
711.0,11250806.985,-1.6,1.601,2.9,4.0,2.084,2.081,8.05,7.151
716.0,11326931.089,-1.6,1.601,2.9,4.0,2.09,2.09,8.07,7.186
721.0,11403021.231,-1.6,1.601,2.9,4.0,2.088,2.078,8.062,7.142
726.0,11479140.426,-2.823,1.601,2.9,4.0,2.077,2.044,8.022,7.01
731.0,11555567.017,-1.6,1.601,2.9,4.0,2.073,2.065,8.012,7.094
736.0,11631707.276,-1.6,1.601,2.9,4.0,2.067,2.066,7.992,7.097
741.0,11699471.903,-1.6,1.601,2.9,4.0,1.391,1.423,5.287,4.767
746.0,11775672.425,-1.6,1.601,2.9,4.0,2.072,2.072,8.009,7.124
751.0,11851546.382,-1.6,1.601,2.9,4.0,2.071,2.075,8.006,7.131
756.0,11919156.029,-1.6,1.601,2.9,4.0,1.401,1.427,5.323,4.782
761.0,11995128.182,-1.6,1.601,2.9,4.0,2.068,2.065,7.994,7.094
766.0,12070818.971,-1.6,1.601,2.9,4.0,2.068,2.065,7.994,7.096
771.0,12146459.041,-1.6,1.601,2.9,4.0,2.061,2.061,7.969,7.081
776.0,12222073.311,-1.6,1.601,2.9,4.0,2.054,2.05,7.946,7.041
781.0,12297723.628,-1.6,1.601,2.9,4.0,2.042,2.04,7.907,7.001
786.0,12359850.882,1.6,1.601,3.414,3.834,0.786,0.0,2.921,0.0