File: Li-ion_Batteries/UL-PUR_R10-EX6_18650_NCA_23C_2.5-96.5_0.5-0.5C_f_cycle_data.csv
Cycle_Index,Test_Time (s),Min_Current (A),Max_Current (A),Min_Voltage (V),Max_Voltage (V),Charge_Capacity (Ah),Discharge_Capacity (Ah),Charge_Energy (Wh),Discharge_Energy (Wh)
1.0,13306.605,-1.134,1.132,2.9,4.0,1.274,2.385,4.844,8.207
3.0,57124.455,-1.134,1.133,2.9,4.0,2.708,2.711,10.129,9.45
5.0,100889.867,-1.134,1.133,2.9,4.0,2.708,2.711,10.128,9.454
7.0,144353.586,-1.134,1.132,2.9,4.0,2.709,2.712,10.128,9.461
9.0,187840.003,-1.134,1.133,2.9,4.0,2.707,2.711,10.125,9.453
11.0,231376.787,-1.134,1.133,2.9,4.0,2.706,2.709,10.121,9.448
13.0,274954.189,-1.134,1.133,2.9,4.0,2.704,2.707,10.113,9.44
15.0,318567.677,-1.134,1.133,2.9,4.0,2.703,2.706,10.109,9.438
17.0,362206.562,-1.134,1.133,2.9,4.0,2.702,2.705,10.106,9.43
19.0,405994.648,-1.134,1.133,2.9,4.0,2.698,2.703,10.101,9.42
21.0,449674.038,-1.134,1.132,2.9,4.0,2.699,2.702,10.097,9.416
23.0,493117.387,-1.134,1.133,2.9,4.0,2.7,2.703,10.098,9.425
25.0,536600.164,-1.134,1.133,2.9,4.0,2.699,2.702,10.094,9.422
27.0,580089.804,-1.134,1.133,2.9,4.0,2.698,2.701,10.091,9.417
29.0,623553.162,-1.134,1.133,2.9,4.0,2.697,2.701,10.088,9.416
31.0,666819.939,-1.134,1.133,2.9,4.0,2.699,2.701,10.09,9.422
33.0,710446.952,-1.134,1.133,2.9,4.0,2.694,2.697,10.08,9.396
35.0,754165.666,-1.134,1.133,2.9,4.0,2.694,2.697,10.078,9.395
37.0,797982.012,-1.134,1.133,2.9,4.0,2.693,2.695,10.074,9.387
39.0,841736.022,-1.134,1.133,2.9,4.0,2.692,2.695,10.072,9.386
41.0,885426.145,-1.134,1.132,2.9,4.0,2.69,2.693,10.066,9.379
43.0,929122.587,-1.134,1.133,2.9,4.0,2.69,2.692,10.064,9.375
45.0,972889.169,-1.134,1.133,2.9,4.0,2.688,2.691,10.061,9.372
47.0,1016585.079,-1.134,1.133,2.9,4.0,2.688,2.691,10.059,9.371
49.0,1057023.4,-1.6,1.599,2.9,4.0,2.695,2.691,10.12,9.264
51.0,1091563.09,-1.6,1.599,2.9,4.0,2.688,2.691,10.146,9.263
53.0,1126301.886,-1.6,1.599,2.9,4.0,2.687,2.69,10.141,9.258
55.0,1160338.976,-1.6,1.599,2.9,4.0,2.687,2.67,10.14,9.193
57.0,1191187.331,-1.6,1.599,2.9,4.0,2.486,2.491,9.429,8.679
59.0,1221531.003,-1.6,1.599,2.9,4.0,2.489,2.475,9.439,8.629
61.0,1251809.661,-1.6,1.599,2.9,4.0,2.47,2.486,9.375,8.657
63.0,1282229.347,-1.6,1.599,2.9,4.0,2.487,2.492,9.432,8.68
65.0,1312618.814,-1.6,1.599,2.9,4.0,2.481,2.469,9.411,8.6
67.0,1342972.78,-1.6,1.599,2.9,4.0,2.48,2.474,9.413,8.614
69.0,1373364.567,-1.6,1.599,2.9,4.0,2.483,2.47,9.421,8.606
71.0,1403691.64,-1.6,1.599,2.9,4.0,2.471,2.465,9.381,8.582
73.0,1434042.8,-1.6,1.599,2.9,4.0,2.466,2.473,9.363,8.608
75.0,1464451.136,-1.6,1.599,2.9,4.0,2.476,2.469,9.396,8.596
77.0,1494853.444,-1.6,1.599,2.9,4.0,2.468,2.463,9.369,8.573
79.0,1525214.491,-1.6,1.599,2.9,4.0,2.465,2.466,9.359,8.584
81.0,1549755.065,-1.6,1.599,2.9,4.0,1.945,1.953,7.28,6.667
83.0,1580196.908,-1.6,1.599,2.9,4.0,2.462,2.458,9.35,8.557
85.0,1610594.764,-1.6,1.599,2.9,4.0,2.458,2.462,9.334,8.566
87.0,1640994.794,-1.6,1.599,2.9,4.0,2.466,2.459,9.363,8.557
89.0,1671406.043,-1.6,1.599,2.9,4.0,2.461,2.456,9.347,8.545
91.0,1701814.064,-1.6,1.599,2.9,4.0,2.456,2.464,9.328,8.573
93.0,1732245.189,-1.6,1.599,2.9,4.0,2.462,2.476,9.348,8.617
95.0,1762570.296,-1.6,1.599,2.9,4.0,2.472,2.48,9.384,8.632
97.0,1792997.217,-1.6,1.599,2.9,4.0,2.478,2.478,9.4,8.623
99.0,1823407.809,-1.6,1.599,2.9,4.0,2.477,2.481,9.399,8.635
101.0,1853723.054,-1.6,1.599,2.9,4.0,2.47,2.416,9.372,8.395
103.0,1884193.351,-1.6,1.599,2.9,4.0,2.395,2.388,9.128,8.29
105.0,1914753.843,-1.6,1.599,2.9,4.0,2.419,2.437,9.206,8.471
107.0,1945184.231,-1.6,1.599,2.9,4.0,2.44,2.444,9.275,8.498
109.0,1975605.619,-1.6,1.599,2.9,4.0,2.444,2.435,9.29,8.467
111.0,2006066.441,-1.6,1.599,2.9,4.0,2.43,2.437,9.244,8.468
113.0,2036507.209,-1.6,1.599,2.9,4.0,2.428,2.423,9.236,8.42
115.0,2066977.499,-1.6,1.599,2.9,4.0,2.417,2.421,9.201,8.406
117.0,2097361.987,-1.6,1.599,2.9,4.0,2.425,2.428,9.228,8.439
119.0,2127890.253,-1.6,1.599,2.9,4.0,2.428,2.442,9.237,8.486
121.0,2152382.452,-1.6,1.599,2.9,4.0,2.44,2.438,9.278,8.471
123.0,2182895.529,-1.6,1.599,2.9,4.0,2.428,2.434,9.236,8.459
125.0,2213436.495,-1.6,1.599,2.9,4.0,2.428,2.424,9.235,8.418
127.0,2243944.434,-1.6,1.599,2.9,4.0,2.422,2.413,9.216,8.381
129.0,2274438.701,-1.6,1.599,2.9,4.0,2.415,2.417,9.194,8.394
131.0,2304869.531,-1.6,1.599,2.9,4.0,2.411,2.405,9.18,8.352
133.0,2335386.709,-1.6,1.599,2.9,4.0,2.398,2.405,9.138,8.353
135.0,2365910.707,-1.6,1.599,2.9,4.0,2.407,2.406,9.166,8.353
137.0,2396461.034,-1.6,1.599,2.9,4.0,2.402,2.397,9.149,8.321
139.0,2427007.567,-1.6,1.599,2.9,4.0,2.407,2.408,9.165,8.361
141.0,2457556.529,-1.6,1.599,2.9,4.0,2.405,2.406,9.162,8.356
143.0,2488295.68,-1.6,1.599,2.9,4.0,2.434,2.401,9.258,8.334
145.0,2518903.247,-1.6,1.599,2.9,4.0,2.402,2.411,9.15,8.369
147.0,2549393.203,-1.6,1.599,2.9,4.0,2.404,2.4,9.158,8.329
149.0,2579946.607,-1.6,1.599,2.9,4.0,2.394,2.394,9.125,8.309
151.0,2610424.95,-1.6,1.599,2.9,4.0,2.382,2.386,9.08,8.277
153.0,2640989.587,-1.6,1.599,2.9,4.0,2.384,2.385,9.088,8.272
155.0,2671589.639,-1.6,1.599,2.9,4.0,2.383,2.38,9.087,8.254
157.0,2702153.94,-1.6,1.599,2.9,4.0,2.378,2.372,9.069,8.225
159.0,2726249.734,-1.6,1.599,2.9,4.0,1.814,1.82,6.811,6.181
161.0,2756975.22,-1.6,1.599,2.9,4.0,2.381,2.379,9.081,8.249
163.0,2787642.017,-1.6,1.599,2.9,4.0,2.377,2.373,9.067,8.226
165.0,2818251.969,-1.6,1.599,2.9,4.0,2.374,2.378,9.056,8.243
167.0,2842402.439,-1.6,1.599,2.9,4.0,2.381,2.374,9.083,8.231
169.0,2873031.916,-1.6,1.599,2.9,4.0,2.364,2.381,9.023,8.254
171.0,2903624.272,-1.6,1.599,2.9,4.0,2.39,2.393,9.11,8.303
173.0,2934323.084,-1.6,1.599,2.9,4.0,2.371,2.368,9.047,8.21
175.0,2964965.718,-1.6,1.599,2.9,4.0,2.366,2.371,9.031,8.218
177.0,2995621.918,-1.6,1.599,2.9,4.0,2.367,2.371,9.034,8.219
179.0,3026310.862,-1.6,1.599,2.9,4.0,2.37,2.369,9.041,8.213
181.0,3056900.644,-1.6,1.599,2.9,4.0,2.357,2.363,8.999,8.191
183.0,3087383.526,-1.6,1.599,2.9,4.0,2.366,2.362,9.029,8.183
185.0,3118042.582,-1.6,1.599,2.9,4.0,2.36,2.36,9.009,8.18
187.0,3148752.732,-1.6,1.599,2.9,4.0,2.356,2.362,8.995,8.186
189.0,3179451.835,-1.6,1.599,2.9,4.0,2.356,2.36,8.996,8.178
191.0,3210099.283,-1.6,1.599,2.9,4.0,2.358,2.365,9.0,8.198
193.0,3240800.614,-1.6,1.599,2.9,4.0,2.362,2.364,9.015,8.194
195.0,3264823.656,-1.6,1.599,2.9,4.0,1.794,1.804,6.74,6.124
197.0,3288873.551,-1.6,1.599,2.9,4.0,1.792,1.791,6.729,6.079
199.0,3319652.533,-1.6,1.599,2.9,4.0,2.357,2.357,8.998,8.166
201.0,3350348.426,-1.6,1.599,2.9,4.0,2.355,2.355,8.991,8.161
203.0,3381009.066,-1.6,1.599,2.9,4.0,2.354,2.351,8.987,8.147
205.0,3411709.489,-1.6,1.599,2.9,4.0,2.347,2.353,8.964,8.152
207.0,3442410.563,-1.6,1.599,2.9,4.0,2.349,2.352,8.972,8.146
209.0,3473085.577,-1.6,1.599,2.9,4.0,2.348,2.346,8.968,8.129
211.0,3503790.093,-1.6,1.599,2.9,4.0,2.345,2.346,8.959,8.129
213.0,3534494.867,-1.6,1.599,2.9,4.0,2.344,2.348,8.953,8.135
215.0,3565177.207,-1.6,1.599,2.9,4.0,2.343,2.34,8.951,8.105
217.0,3595876.349,-1.6,1.599,2.9,4.0,2.341,2.343,8.944,8.118
219.0,3626572.918,-1.6,1.599,2.9,4.0,2.345,2.339,8.956,8.103
221.0,3657260.295,-1.6,1.599,2.9,4.0,2.34,2.337,8.941,8.096
223.0,3681203.521,-1.6,1.599,2.9,4.0,2.347,2.346,8.97,8.121
225.0,3711964.485,-1.6,1.599,2.9,4.0,2.337,2.338,8.929,8.099
227.0,3742697.077,-1.6,1.599,2.9,4.0,2.336,2.334,8.928,8.083
229.0,3773447.161,-1.6,1.599,2.9,4.0,2.336,2.335,8.927,8.089
231.0,3804177.358,-1.6,1.599,2.9,4.0,2.335,2.335,8.925,8.087
233.0,3834924.887,-1.6,1.599,2.9,4.0,2.334,2.329,8.919,8.065
235.0,3865671.836,-1.6,1.599,2.9,4.0,2.33,2.332,8.905,8.076
237.0,3896426.263,-1.6,1.599,2.9,4.0,2.335,2.33,8.922,8.068
239.0,3927148.57,-1.6,1.599,2.9,4.0,2.33,2.325,8.904,8.05
241.0,3957931.796,-1.6,1.599,2.9,4.0,2.333,2.329,8.915,8.066
243.0,3988655.591,-1.6,1.599,2.9,4.0,2.335,2.328,8.922,8.061
245.0,4019436.057,-1.6,1.599,2.9,4.0,2.33,2.326,8.905,8.052
247.0,4050155.965,-1.6,1.599,2.9,4.0,2.326,2.324,8.891,8.045
249.0,4074008.817,-1.6,1.599,2.9,4.0,2.335,2.328,8.927,8.06
251.0,4104704.046,-1.6,1.599,2.9,4.0,2.326,2.329,8.89,8.063
253.0,4135479.394,-1.6,1.599,2.9,4.0,2.323,2.32,8.88,8.03
255.0,4166264.38,-1.6,1.599,2.9,4.0,2.321,2.327,8.872,8.055
257.0,4197013.255,-1.6,1.599,2.9,4.0,2.323,2.324,8.879,8.044
259.0,4227741.516,-1.6,1.599,2.9,4.0,2.321,2.321,8.872,8.034
261.0,4258429.99,-1.6,1.599,2.9,4.0,2.33,2.323,8.907,8.042
263.0,4289167.865,-1.6,1.599,2.9,4.0,2.318,2.323,8.864,8.05
265.0,4305885.148,-1.6,1.599,2.9,4.0,1.718,1.722,6.469,5.83
267.0,4329821.455,-1.6,1.599,2.9,4.0,1.726,1.736,6.495,5.88
269.0,4353685.645,-1.6,1.599,2.9,4.0,2.329,2.323,8.909,8.037
271.0,4384462.769,-1.6,1.599,2.9,4.0,2.321,2.319,8.874,8.028
273.0,4415242.883,-1.6,1.599,2.9,4.0,2.317,2.32,8.861,8.027
275.0,4438981.119,-1.6,1.599,2.9,4.0,1.714,1.726,6.452,5.844
277.0,4469778.402,-1.6,1.599,2.9,4.0,2.315,2.314,8.852,8.008
279.0,4500432.442,-1.6,1.599,2.9,4.0,2.313,2.321,8.846,8.031
281.0,4531215.457,-1.6,1.599,2.9,4.0,2.311,2.307,8.839,7.982
283.0,4561952.236,-1.6,1.599,2.9,4.0,2.308,2.309,8.83,7.991
285.0,4592697.946,-1.6,1.599,2.9,4.0,2.314,2.317,8.85,8.019
287.0,4623388.196,-1.6,1.599,2.9,4.0,2.323,2.311,8.877,7.997
289.0,4654108.462,-1.611,1.599,2.9,4.0,2.304,2.301,8.813,7.959
291.0,4684826.012,-1.6,1.599,2.9,4.0,2.315,2.315,8.851,8.012
293.0,4715527.552,-1.6,1.599,2.9,4.0,2.311,2.309,8.836,7.992
295.0,4746251.475,-1.6,1.599,2.9,4.0,2.304,2.305,8.815,7.978
297.0,4776881.076,-1.6,1.599,2.9,4.0,2.3,2.298,8.801,7.946
299.0,4807587.048,-1.6,1.599,2.9,4.0,2.297,2.297,8.788,7.946
301.0,4838361.644,-1.6,1.599,2.9,4.0,2.289,2.298,8.764,7.946
303.0,4868948.697,-1.6,1.599,2.9,4.0,2.303,2.308,8.808,7.987
305.0,4899519.355,-1.6,1.599,2.9,4.0,2.302,2.304,8.808,7.974
307.0,4930187.265,-1.6,1.599,2.9,4.0,2.294,2.295,8.78,7.939
309.0,4960895.61,-1.6,1.599,2.9,4.0,2.297,2.293,8.79,7.932
311.0,4991644.927,-1.6,1.599,2.9,4.0,2.292,2.295,8.774,7.94
313.0,5015232.884,-1.6,1.599,2.9,4.0,1.692,1.699,6.371,5.75
315.0,5046016.69,-1.6,1.599,2.9,4.0,2.289,2.288,8.764,7.914
317.0,5076731.337,-1.6,1.599,2.9,4.0,2.284,2.286,8.744,7.906
319.0,5107411.01,-1.6,1.599,2.9,4.0,2.294,2.294,8.78,7.938
321.0,5138030.069,-1.6,1.599,2.9,4.0,2.301,2.292,8.803,7.928
323.0,5168686.174,-1.6,1.599,2.9,4.0,2.284,2.282,8.746,7.893
325.0,5187864.499,1.599,1.599,3.357,4.0,1.693,0.0,6.375,0.0