File: Li-ion_Batteries/UL-PUR_N15-NA10_18650_NCA_23C_0-100_0.5-0.5C_j_cycle_data.csv
Cycle_Index,Test_Time (s),Min_Current (A),Max_Current (A),Min_Voltage (V),Max_Voltage (V),Charge_Capacity (Ah),Discharge_Capacity (Ah),Charge_Energy (Wh),Discharge_Energy (Wh)
1.0,15382.818,-1.6,1.6,2.7,4.2,1.888,3.229,7.605,11.456
3.0,51605.512,-1.6,1.6,2.7,4.2,3.209,3.183,12.405,11.309
5.0,87259.882,-1.6,1.6,2.7,4.2,3.176,3.163,12.278,11.237
7.0,122720.549,-1.6,1.6,2.7,4.2,3.162,3.154,12.231,11.213
9.0,158166.041,-1.6,1.6,2.7,4.2,3.158,3.162,12.217,11.239
11.0,193521.78,-1.6,1.6,2.7,4.2,3.15,3.13,12.185,11.121
13.0,228787.925,-1.6,1.6,2.7,4.2,3.137,3.132,12.14,11.129
15.0,264099.371,-1.6,1.6,2.698,4.2,3.126,3.118,12.106,11.075
17.0,299397.857,-1.6,1.6,2.7,4.2,3.127,3.126,12.105,11.106
19.0,334658.392,-1.6,1.6,2.7,4.2,3.125,3.12,12.099,11.086
21.0,369930.519,-1.6,1.6,2.7,4.2,3.131,3.117,12.116,11.068
23.0,405207.712,-1.6,1.6,2.7,4.2,3.12,3.117,12.081,11.07
25.0,440507.503,-1.6,1.6,2.7,4.2,3.12,3.105,12.081,11.023
27.0,475845.705,-1.6,1.6,2.7,4.2,3.12,3.115,12.08,11.057
29.0,511140.909,-1.6,1.6,2.7,4.2,3.11,3.106,12.047,11.022
31.0,546498.411,-1.6,1.6,2.7,4.2,3.106,3.111,12.035,11.041
33.0,581864.989,-1.6,1.6,2.7,4.2,3.104,3.107,12.028,11.024
35.0,617184.405,-1.6,1.6,2.7,4.2,3.095,3.095,11.997,10.977
37.0,652617.256,-1.6,1.6,2.7,4.2,3.099,3.1,12.012,10.992
39.0,682705.763,-1.6,1.6,2.7,4.2,2.618,2.613,9.994,9.11
41.0,718305.696,-4.746,1.6,2.551,4.2,3.092,3.093,11.992,10.958
43.0,753894.617,-1.6,1.6,2.7,4.2,3.092,3.089,11.993,10.945
45.0,789412.579,-1.6,1.6,2.7,4.2,3.08,3.081,11.952,10.908
47.0,825059.1,-1.6,1.6,2.7,4.2,3.083,3.079,11.963,10.905
49.0,860648.955,-1.682,1.6,2.692,4.2,3.078,3.066,11.945,10.85
51.0,896325.163,-1.648,1.6,2.694,4.2,3.069,3.072,11.916,10.871
53.0,932093.223,-1.6,1.6,2.7,4.2,3.075,3.073,11.936,10.872
55.0,967889.342,-4.671,1.6,2.551,4.2,3.07,3.063,11.919,10.83
57.0,1003729.531,-1.6,1.6,2.7,4.2,3.07,3.077,11.918,10.879
59.0,1033808.538,-1.6,1.6,2.7,4.2,2.577,2.57,9.847,8.932
61.0,1069738.685,-1.6,1.6,2.7,4.2,3.065,3.059,11.904,10.814
63.0,1105658.76,-1.6,1.6,2.7,4.2,3.057,3.053,11.879,10.786
65.0,1135680.759,-1.6,1.6,2.7,4.2,2.527,2.533,9.67,8.784
67.0,1171737.488,-1.6,1.6,2.7,4.2,3.049,3.042,11.855,10.74
69.0,1207856.765,-1.6,1.6,2.7,4.2,3.039,3.039,11.819,10.724
71.0,1243964.483,-1.6,1.6,2.7,4.2,3.034,3.036,11.804,10.715
73.0,1280152.004,-1.6,1.6,2.7,4.2,3.039,3.041,11.82,10.727
75.0,1316390.923,-1.6,1.6,2.7,4.2,3.036,3.035,11.813,10.702
77.0,1352683.389,-1.6,1.6,2.7,4.2,3.033,3.031,11.802,10.688
79.0,1388957.218,-1.6,1.6,2.7,4.2,3.024,3.017,11.772,10.637
81.0,1425385.626,-1.6,1.6,2.7,4.2,3.023,3.029,11.769,10.678
83.0,1461739.913,-1.6,1.6,2.7,4.2,3.023,3.014,11.769,10.618
85.0,1498186.665,-1.6,1.6,2.7,4.2,3.016,3.015,11.75,10.617
87.0,1534652.735,-1.6,1.6,2.7,4.2,3.015,3.016,11.742,10.623
89.0,1571171.821,-1.6,1.6,2.7,4.2,3.019,3.007,11.756,10.586
91.0,1601200.461,-1.6,1.6,2.7,4.2,3.009,3.014,11.724,10.605
93.0,1631271.656,-1.6,1.6,2.7,4.2,2.484,2.481,9.516,8.574
95.0,1667934.156,-1.6,1.6,2.7,4.2,3.01,3.007,11.731,10.581
97.0,1704558.999,-1.728,1.6,2.689,4.2,3.004,3.008,11.709,10.583
99.0,1741276.636,-1.6,1.6,2.7,4.2,2.999,2.985,11.697,10.489
101.0,1778123.786,-1.6,1.6,2.7,4.2,2.988,3.006,11.661,10.567
103.0,1814849.533,-1.6,1.6,2.7,4.2,3.014,2.981,11.745,10.477
105.0,1851722.324,-1.689,1.6,2.691,4.2,2.978,2.98,11.628,10.468
107.0,1881773.177,-1.6,1.6,2.7,4.2,2.444,2.451,9.374,8.454
109.0,1918637.466,-1.6,1.6,2.7,4.2,2.985,2.979,11.647,10.464
111.0,1955577.281,-1.6,1.6,2.7,4.2,2.975,2.978,11.614,10.456
113.0,1992497.722,-1.6,1.6,2.7,4.2,2.986,2.968,11.65,10.414
115.0,2029580.255,-1.6,1.6,2.7,4.2,2.962,2.987,11.574,10.474
117.0,2066634.163,-1.6,1.6,2.7,4.2,2.96,2.958,11.564,10.379
119.0,2103773.166,-1.6,1.6,2.7,4.2,2.959,2.973,11.562,10.432
121.0,2140818.393,-1.6,1.6,2.7,4.2,2.988,2.998,11.654,10.537
123.0,2177779.395,-1.6,1.6,2.7,4.2,2.955,2.955,11.549,10.357
125.0,2214875.516,-1.6,1.6,2.7,4.2,2.983,2.989,11.637,10.497
127.0,2251815.896,-1.6,1.6,2.7,4.2,2.959,2.966,11.558,10.4
129.0,2288939.137,-1.6,1.6,2.7,4.2,2.958,2.972,11.555,10.428
131.0,2325874.955,-1.6,1.6,2.7,4.2,2.999,2.968,11.684,10.408
133.0,2363105.564,-1.6,1.6,2.7,4.2,2.948,2.94,11.53,10.302
135.0,2400351.615,-1.6,1.6,2.698,4.2,2.965,2.975,11.58,10.439
137.0,2437503.559,-1.6,1.6,2.7,4.2,2.956,2.946,11.55,10.319
139.0,2474637.318,-1.6,1.6,2.7,4.201,2.976,2.989,11.615,10.496
141.0,2511720.695,-3.377,1.601,2.609,4.201,2.99,2.991,11.661,10.502
143.0,2549027.377,-1.6,1.6,2.7,4.2,2.96,2.967,11.562,10.402
145.0,2585865.949,-1.6,1.601,2.7,4.201,3.006,2.969,11.705,10.435
147.0,2623174.882,-1.6,1.6,2.7,4.2,2.926,2.932,11.453,10.253
149.0,2660632.555,-1.6,1.6,2.699,4.2,2.942,2.952,11.504,10.339
151.0,2697991.371,-1.6,1.6,2.7,4.2,2.928,2.92,11.453,10.208
153.0,2735397.971,-1.6,1.6,2.7,4.2,2.934,2.935,11.477,10.27
155.0,2765427.861,-1.6,1.6,2.7,4.2,2.934,2.914,11.48,10.183
157.0,2803021.231,-4.209,1.6,2.569,4.2,2.904,2.907,11.381,10.151
159.0,2840497.521,-1.6,1.6,2.7,4.2,2.916,2.911,11.416,10.173
161.0,2878084.764,-1.6,1.6,2.7,4.2,2.911,2.894,11.4,10.105
163.0,2907981.221,-1.6,1.6,2.7,4.2,2.913,2.907,11.414,10.154
165.0,2945600.318,-1.6,1.6,2.7,4.2,2.9,2.886,11.366,10.071
167.0,2983366.744,-1.6,1.6,2.7,4.2,2.885,2.887,11.316,10.078
169.0,3021061.45,-1.6,1.6,2.7,4.2,2.889,2.877,11.325,10.039
171.0,3058855.647,-1.6,1.6,2.7,4.2,2.871,2.873,11.27,10.02
173.0,3096539.961,-1.6,1.6,2.7,4.2,2.88,2.877,11.296,10.031
175.0,3134237.942,-1.6,1.6,2.7,4.2,2.9,2.889,11.36,10.088
177.0,3171964.913,-1.6,1.6,2.7,4.2,2.903,2.915,11.371,10.194
179.0,3209613.811,-1.6,1.6,2.7,4.2,2.921,2.905,11.429,10.159
181.0,3247124.522,-1.6,1.6,2.7,4.201,2.889,2.908,11.325,10.168
183.0,3284642.795,-1.6,1.6,2.7,4.2,2.897,2.855,11.356,9.942
185.0,3322483.141,-1.6,1.6,2.7,4.2,2.848,2.852,11.19,9.932
187.0,3360228.499,-1.6,1.6,2.7,4.2,2.863,2.854,11.235,9.944
189.0,3398094.169,-1.6,1.6,2.7,4.2,2.836,2.84,11.15,9.883
191.0,3435880.726,-1.6,1.6,2.7,4.2,2.853,2.85,11.203,9.929
193.0,3473701.063,-1.6,1.6,2.7,4.2,2.845,2.83,11.178,9.847
195.0,3511577.393,-1.6,1.6,2.7,4.2,2.837,2.844,11.152,9.904
197.0,3541039.95,-1.6,1.6,2.7,4.2,2.232,2.241,8.612,7.645
199.0,3579162.517,-1.6,1.6,2.7,4.2,2.832,2.845,11.139,9.908
201.0,3608777.403,-1.6,1.6,2.7,4.2,2.241,2.259,8.642,7.711
203.0,3646858.453,-1.6,1.6,2.7,4.2,2.826,2.825,11.117,9.827
205.0,3684843.006,-1.6,1.6,2.7,4.2,2.83,2.835,11.127,9.873
207.0,3722448.298,-1.6,1.6,2.7,4.2,2.829,2.816,11.118,9.792
209.0,3760361.93,-1.6,1.6,2.7,4.2,2.818,2.822,11.086,9.82
211.0,3798074.808,-1.6,1.6,2.7,4.2,2.831,2.816,11.125,9.803
213.0,3836056.783,-1.6,1.6,2.7,4.2,2.806,2.815,11.045,9.79
215.0,3873544.626,-1.6,1.6,2.7,4.2,2.825,2.819,11.104,9.811
217.0,3911278.374,-1.6,1.6,2.7,4.2,2.81,2.809,11.053,9.769
219.0,3948988.042,-1.6,1.6,2.7,4.2,2.823,2.82,11.094,9.814
221.0,3986691.002,-1.6,1.6,2.7,4.2,2.802,2.797,11.029,9.717
223.0,4024959.843,-1.6,1.6,2.7,4.2,2.802,2.986,11.028,10.286
225.0,4063301.556,-1.6,1.601,2.7,4.2,2.803,2.786,11.034,9.678
227.0,4092729.391,-1.6,1.6,2.7,4.2,2.179,2.194,8.416,7.473
229.0,4130853.125,-1.6,1.6,2.7,4.2,2.787,2.786,10.978,9.678
231.0,4168662.867,-1.6,1.6,2.7,4.2,2.792,2.787,10.988,9.688
233.0,4206226.205,-1.6,1.6,2.7,4.2,2.791,2.78,10.982,9.645
235.0,4243986.282,-1.6,1.6,2.7,4.2,2.781,2.795,10.958,9.718
237.0,4281627.334,-1.6,1.6,2.7,4.2,2.787,2.791,10.97,9.7
239.0,4319500.95,-1.6,1.6,2.7,4.2,2.763,2.774,10.892,9.628
241.0,4357196.572,-1.6,1.6,2.7,4.2,2.773,2.777,10.923,9.644
243.0,4394895.756,-1.751,1.6,2.688,4.2,2.759,2.766,10.881,9.592
245.0,4432249.017,-1.6,1.6,2.7,4.2,2.764,2.765,10.892,9.591
247.0,4469973.731,-1.6,1.6,2.7,4.2,2.762,2.752,10.886,9.537
249.0,4507793.282,-1.6,1.6,2.7,4.2,2.759,2.758,10.877,9.564
251.0,4545531.398,-1.6,1.6,2.7,4.2,2.761,2.754,10.882,9.552
253.0,4574843.013,-1.6,1.6,2.7,4.2,2.77,2.764,10.924,9.593
255.0,4612804.098,-1.6,1.6,2.7,4.2,2.759,2.754,10.875,9.552
257.0,4650633.249,-1.6,1.6,2.7,4.2,2.752,2.744,10.853,9.513
259.0,4688433.548,-1.6,1.6,2.7,4.2,2.757,2.757,10.863,9.566
261.0,4726036.799,-1.6,1.6,2.7,4.2,2.756,2.743,10.864,9.504
263.0,4763718.451,-1.6,1.6,2.7,4.2,2.735,2.746,10.793,9.519
265.0,4801349.702,-1.6,1.6,2.7,4.2,2.743,2.726,10.816,9.456
267.0,4839136.531,-1.6,1.6,2.7,4.2,2.729,2.722,10.773,9.421
269.0,4876838.473,-1.6,1.6,2.7,4.2,2.73,2.729,10.774,9.454
270.0,4890996.391,-1.6,1.6,3.386,4.2,2.731,0.791,10.778,2.99