File: Li-ion_Batteries/UL-PUR_N20-EX2_18650_NCA_23C_0-100_0.5-0.5C_b_cycle_data.csv
Cycle_Index,Test_Time (s),Min_Current (A),Max_Current (A),Min_Voltage (V),Max_Voltage (V),Charge_Capacity (Ah),Discharge_Capacity (Ah),Charge_Energy (Wh),Discharge_Energy (Wh)
1.0,19702.687,-1.603,1.597,2.697,4.2,1.907,3.362,7.693,11.767
4.0,88778.496,-1.603,1.597,2.697,4.2,3.386,3.349,13.085,11.711
7.0,157806.878,-1.603,1.597,2.697,4.2,3.387,3.345,13.076,11.687
10.0,227350.78,-1.603,1.597,2.697,4.2,3.384,3.347,13.068,11.692
13.0,297059.899,-1.603,1.597,2.697,4.2,3.383,3.342,13.061,11.658
16.0,367285.874,-1.603,1.598,2.697,4.2,3.378,3.338,13.049,11.636
19.0,438520.364,-1.603,1.597,2.697,4.2,3.371,3.332,13.041,11.595
22.0,508350.238,-1.603,1.597,2.697,4.2,3.37,3.33,13.031,11.583
25.0,571144.307,-1.603,1.598,2.697,4.2,3.368,3.326,13.025,11.569
28.0,634598.582,-1.603,1.597,2.697,4.2,3.361,3.322,13.011,11.543
31.0,698416.961,-1.603,1.597,2.697,4.2,3.355,3.315,12.992,11.496
34.0,762387.56,-1.603,1.597,2.697,4.2,3.356,3.308,12.991,11.452
37.0,826673.629,-1.603,1.597,2.697,4.2,3.351,3.311,12.983,11.478
40.0,891762.755,-1.603,1.597,2.697,4.2,3.346,3.305,12.969,11.444
43.0,957163.177,-1.603,1.597,2.697,4.2,3.339,3.297,12.958,11.4
46.0,1022137.313,-1.603,1.597,2.697,4.2,3.347,3.293,12.967,11.379
49.0,1087453.776,-1.603,1.597,2.697,4.2,3.34,3.297,12.952,11.401
52.0,1153189.419,-1.603,1.597,2.697,4.2,3.337,3.29,12.948,11.363
55.0,1218991.133,-1.603,1.597,2.697,4.2,3.329,3.284,12.925,11.328
58.0,1284704.355,-1.603,1.597,2.697,4.2,3.328,3.277,12.917,11.283
61.0,1350818.401,-1.603,1.597,2.697,4.2,3.325,3.28,12.907,11.311
64.0,1417407.536,-1.603,1.597,2.697,4.2,3.319,3.274,12.898,11.268
67.0,1484322.516,-1.603,1.597,2.697,4.2,3.314,3.268,12.883,11.237
70.0,1551743.221,-1.603,1.597,2.697,4.2,3.312,3.256,12.886,11.182
73.0,1619466.946,-1.603,1.597,2.697,4.2,3.31,3.256,12.872,11.19
76.0,1687643.111,-1.603,1.597,2.697,4.2,3.304,3.256,12.858,11.174
79.0,1756118.99,-1.603,1.597,2.697,4.2,3.297,3.249,12.841,11.137
82.0,1824865.743,-1.603,1.597,2.697,4.2,3.296,3.249,12.846,11.129
85.0,1893618.797,-1.603,1.597,2.697,4.2,3.291,3.242,12.821,11.094
88.0,1962480.798,-1.603,1.597,2.697,4.2,3.287,3.239,12.81,11.082
91.0,2031903.689,-1.603,1.597,2.697,4.2,3.281,3.236,12.792,11.057
94.0,2101689.231,-1.637,1.597,2.697,4.2,3.277,3.232,12.788,11.035
97.0,2171564.663,-1.604,1.598,2.697,4.2,3.276,3.231,12.783,11.029
100.0,2241110.726,-1.603,1.597,2.697,4.2,3.276,3.227,12.774,11.011
103.0,2311297.779,-1.603,1.597,2.697,4.2,3.271,3.224,12.764,10.995
106.0,2381958.077,-1.603,1.597,2.697,4.2,3.265,3.218,12.748,10.963
109.0,2452774.747,-1.603,1.597,2.697,4.2,3.261,3.216,12.74,10.959
112.0,2523794.283,-1.603,1.597,2.697,4.2,3.252,3.208,12.714,10.912
115.0,2594924.22,-1.603,1.597,2.697,4.2,3.251,3.203,12.704,10.889
118.0,2666099.58,-1.603,1.598,2.697,4.2,3.249,3.203,12.701,10.891
121.0,2737978.107,-1.603,1.597,2.697,4.2,3.245,3.197,12.692,10.86
124.0,2810528.512,-1.603,1.597,2.697,4.2,3.238,3.193,12.673,10.828
127.0,2883731.841,-1.604,1.597,2.697,4.2,3.232,3.185,12.658,10.789
130.0,2956968.633,-1.604,1.597,2.697,4.2,3.223,3.179,12.631,10.753
133.0,3030348.409,-1.603,1.598,2.697,4.2,3.224,3.169,12.625,10.708
136.0,3104521.451,-1.603,1.597,2.697,4.2,3.214,3.163,12.602,10.683
139.0,3178558.98,-1.603,1.597,2.697,4.2,3.213,3.162,12.597,10.68
142.0,3252903.082,-1.603,1.597,2.697,4.2,3.208,3.156,12.58,10.654
145.0,3327755.032,-1.603,1.597,2.697,4.2,3.206,3.156,12.572,10.652
148.0,3402638.334,-1.603,1.597,2.697,4.2,3.203,3.153,12.568,10.643
151.0,3478035.192,-1.603,1.598,2.697,4.2,3.21,3.148,12.601,10.624
154.0,3553674.887,-1.603,1.597,2.697,4.2,3.208,3.139,12.583,10.577
157.0,3629923.317,-1.603,1.597,2.697,4.2,3.216,3.136,12.639,10.572
160.0,3706712.3,-1.603,1.597,2.697,4.2,3.209,3.129,12.602,10.524
163.0,3782680.636,-1.603,1.597,2.697,4.2,3.21,3.131,12.599,10.558
166.0,3858594.845,-1.603,1.598,2.697,4.2,3.187,3.135,12.504,10.565
169.0,3934506.806,-1.603,1.598,2.697,4.2,3.182,3.13,12.497,10.54
172.0,4011039.658,-1.603,1.597,2.697,4.2,3.18,3.123,12.494,10.498
175.0,4087657.351,-1.603,1.597,2.697,4.2,3.174,3.118,12.48,10.48
178.0,4164643.762,-1.603,1.597,2.697,4.2,3.158,3.111,12.424,10.435
181.0,4241002.075,-1.603,1.597,2.697,4.2,3.153,3.108,12.398,10.434
184.0,4317572.275,-1.609,1.598,2.697,4.2,3.153,3.106,12.398,10.416
187.0,4394746.427,-1.603,1.598,2.697,4.2,3.148,3.102,12.38,10.407
190.0,4471438.406,-1.603,1.597,2.697,4.2,3.142,3.089,12.358,10.356
193.0,4549097.261,-1.603,1.597,2.697,4.2,3.133,3.087,12.334,10.327
196.0,4627475.553,-1.603,1.597,2.697,4.2,3.13,3.084,12.325,10.317
199.0,4706269.877,-1.603,1.598,2.697,4.2,3.119,3.077,12.298,10.283
202.0,4786031.113,-1.603,1.598,2.697,4.2,3.116,3.074,12.298,10.269
205.0,4865491.881,-1.603,1.597,2.697,4.2,3.117,3.072,12.293,10.255
208.0,4944463.621,-1.603,1.597,2.697,4.2,3.115,3.069,12.27,10.256
211.0,5024071.336,-1.603,1.597,2.697,4.2,3.109,3.06,12.262,10.201
214.0,5104312.701,-1.603,1.598,2.697,4.2,3.106,3.056,12.251,10.181
217.0,5184265.703,-1.618,1.597,2.697,4.2,3.1,3.057,12.224,10.2
220.0,5264424.408,-1.603,1.597,2.697,4.2,3.098,3.047,12.222,10.143
223.0,5345544.896,-1.603,1.597,2.697,4.2,3.091,3.043,12.199,10.134
226.0,5426728.321,-1.603,1.597,2.697,4.2,3.085,3.04,12.179,10.113
229.0,5508073.058,-1.603,1.597,2.697,4.2,3.079,3.031,12.158,10.086
232.0,5589133.249,-1.603,1.598,2.697,4.2,3.07,3.025,12.128,10.053
235.0,5670655.698,-1.603,1.597,2.697,4.2,3.07,3.024,12.134,10.045
238.0,5751860.412,-1.603,1.598,2.697,4.2,3.074,3.021,12.14,10.042
241.0,5832038.207,-1.603,1.598,2.697,4.2,3.071,3.026,12.115,10.079
244.0,5913926.162,-1.603,1.598,2.697,4.2,3.055,3.009,12.081,9.981
247.0,5997138.387,-1.603,1.597,2.697,4.2,3.051,3.005,12.075,9.957
250.0,6080046.694,-1.604,1.597,2.697,4.2,3.047,2.996,12.058,9.927
253.0,6163091.92,-1.609,1.597,2.697,4.2,3.05,2.998,12.071,9.951
256.0,6245624.288,-1.603,1.597,2.697,4.2,3.036,2.989,12.013,9.904
259.0,6328388.737,-1.603,1.597,2.697,4.2,3.032,2.985,12.002,9.89
262.0,6411556.648,-1.603,1.597,2.697,4.2,3.027,2.975,11.986,9.85
265.0,6495312.62,-1.603,1.597,2.697,4.2,3.027,2.979,11.994,9.86
268.0,6578211.593,-1.603,1.597,2.697,4.2,3.022,2.973,11.96,9.847
271.0,6661303.258,-1.603,1.597,2.697,4.2,3.02,2.974,11.958,9.861
274.0,6743840.282,-1.603,1.598,2.697,4.2,3.008,2.961,11.914,9.799
277.0,6827297.749,-1.633,1.598,2.697,4.2,3.004,2.958,11.901,9.781
280.0,6910588.658,-1.603,1.597,2.697,4.2,2.998,2.952,11.878,9.757
283.0,6993630.83,-1.603,1.598,2.697,4.2,2.988,2.944,11.841,9.72
286.0,7076619.051,-1.603,1.597,2.697,4.2,2.984,2.941,11.826,9.71
289.0,7159585.212,-1.603,1.597,2.697,4.2,2.977,2.935,11.802,9.689
292.0,7229147.994,-1.603,1.598,2.7,4.2,2.532,2.509,10.105,8.521
295.0,7288843.108,-1.647,1.597,2.697,4.2,2.518,2.483,10.05,8.427
298.0,7348060.581,-1.603,1.598,2.7,4.2,2.486,2.469,9.924,8.367
301.0,7407833.731,-1.603,1.597,2.7,4.2,2.503,2.463,9.991,8.359
304.0,7467860.162,-1.603,1.597,2.7,4.2,2.488,2.463,9.934,8.354
307.0,7527829.681,-1.603,1.597,2.7,4.2,2.476,2.449,9.892,8.302
310.0,7586746.212,-1.603,1.597,2.7,4.2,2.476,2.439,9.885,8.272
313.0,7646438.146,-1.603,1.597,2.7,4.2,2.48,2.447,9.903,8.296
316.0,7706679.073,-1.603,1.598,2.7,4.2,2.472,2.438,9.883,8.257
319.0,7767564.895,-1.603,1.597,2.7,4.2,2.506,2.463,10.004,8.366
320.0,7771261.82,1.596,1.597,3.431,4.153,1.64,0.0,6.369,0.0