File: Li-ion_Batteries/UL-PUR_N20-NA5_18650_NCA_23C_0-100_0.5-0.5C_e_cycle_data.csv
Cycle_Index,Test_Time (s),Min_Current (A),Max_Current (A),Min_Voltage (V),Max_Voltage (V),Charge_Capacity (Ah),Discharge_Capacity (Ah),Charge_Energy (Wh),Discharge_Energy (Wh)
1.0,9319.544,-1.6,1.6,2.7,4.263,0.05,3.366,0.187,11.831
3.0,47683.697,-1.6,1.6,2.7,4.2,3.349,3.342,12.891,11.755
5.0,86156.998,-1.6,1.6,2.7,4.2,3.343,3.339,12.871,11.74
7.0,124738.287,-1.6,1.6,2.7,4.2,3.34,3.337,12.864,11.725
9.0,163410.974,-1.6,1.6,2.7,4.2,3.339,3.336,12.859,11.713
11.0,202249.006,-1.6,1.6,2.7,4.2,3.338,3.335,12.86,11.706
13.0,241180.641,-1.6,1.6,2.7,4.2,3.336,3.334,12.857,11.697
15.0,280231.327,-1.6,1.6,2.7,4.2,3.335,3.332,12.853,11.681
17.0,319442.391,-1.6,1.6,2.7,4.2,3.334,3.331,12.853,11.673
19.0,358806.029,-1.6,1.6,2.7,4.2,3.332,3.328,12.848,11.651
21.0,398272.792,-1.6,1.6,2.7,4.2,3.33,3.327,12.844,11.645
23.0,437865.628,-1.6,1.6,2.7,4.2,3.328,3.326,12.84,11.635
25.0,472079.077,-1.6,1.6,2.7,4.2,2.831,2.832,10.755,9.717
27.0,506448.591,-1.6,1.6,2.7,4.2,3.325,3.322,12.838,11.603
29.0,546411.927,-1.6,1.6,2.7,4.2,3.323,3.32,12.831,11.595
31.0,586414.175,-1.6,1.6,2.7,4.2,3.322,3.32,12.829,11.59
33.0,626597.982,-1.6,1.6,2.7,4.2,3.32,3.317,12.822,11.569
35.0,666848.607,-1.6,1.6,2.7,4.2,3.319,3.316,12.819,11.563
37.0,707408.801,-1.6,1.6,2.7,4.2,3.315,3.313,12.813,11.539
39.0,748054.596,-1.6,1.6,2.7,4.2,3.313,3.311,12.808,11.529
41.0,788893.221,-1.6,1.6,2.7,4.2,3.311,3.308,12.801,11.504
43.0,829859.849,-1.6,1.6,2.7,4.2,3.309,3.306,12.799,11.495
45.0,870951.717,-1.6,1.6,2.7,4.2,3.306,3.304,12.79,11.48
47.0,912273.769,-1.6,1.6,2.7,4.2,3.303,3.3,12.784,11.459
49.0,953644.145,-1.6,1.6,2.7,4.2,3.302,3.299,12.78,11.451
51.0,988870.997,-1.6,1.6,2.7,4.2,2.767,2.767,10.536,9.409
53.0,1030795.174,-1.6,1.6,2.7,4.2,3.297,3.292,12.766,11.402
55.0,1072948.619,-1.6,1.6,2.7,4.2,3.294,3.291,12.762,11.397
57.0,1115366.97,-1.6,1.6,2.7,4.2,3.292,3.287,12.755,11.369
59.0,1157650.757,-1.601,1.6,2.7,4.2,3.292,3.289,12.751,11.384
61.0,1200236.843,-1.6,1.6,2.7,4.2,3.288,3.285,12.743,11.36
63.0,1242892.712,-1.6,1.6,2.7,4.2,3.286,3.282,12.738,11.339
65.0,1285731.763,-1.6,1.6,2.7,4.2,3.284,3.282,12.737,11.344
67.0,1328686.762,-1.6,1.6,2.7,4.2,3.282,3.278,12.725,11.315
69.0,1372142.903,-1.6,1.6,2.7,4.2,3.277,3.273,12.715,11.277
71.0,1415772.958,-1.6,1.6,2.7,4.2,3.274,3.27,12.709,11.268
73.0,1459512.763,-1.6,1.6,2.7,4.2,3.27,3.267,12.699,11.254
75.0,1503318.055,-1.6,1.6,2.7,4.2,3.267,3.263,12.684,11.232
77.0,1546932.648,-1.6,1.6,2.7,4.2,3.267,3.264,12.683,11.254
79.0,1590669.676,-1.6,1.6,2.7,4.2,3.264,3.26,12.674,11.228
81.0,1634638.995,-1.6,1.6,2.7,4.2,3.26,3.257,12.662,11.206
83.0,1678824.038,-1.6,1.6,2.7,4.2,3.256,3.252,12.655,11.176
85.0,1715780.517,-1.6,1.6,2.7,4.2,2.669,2.667,10.199,8.965
87.0,1760750.462,-1.6,1.6,2.7,4.2,3.249,3.245,12.64,11.134
89.0,1805936.642,-1.6,1.6,2.7,4.2,3.245,3.24,12.628,11.107
91.0,1851182.63,-1.6,1.6,2.7,4.2,3.242,3.239,12.613,11.103
93.0,1896814.618,-1.6,1.6,2.7,4.2,3.239,3.235,12.612,11.078
95.0,1942380.373,-1.6,1.601,2.7,4.2,3.235,3.232,12.601,11.064
97.0,1988352.401,-1.6,1.6,2.7,4.2,3.232,3.227,12.591,11.03
99.0,2034512.272,-1.601,1.6,2.7,4.2,3.228,3.228,12.588,11.039
101.0,2071680.999,-1.6,1.6,2.7,4.2,3.232,3.23,12.585,11.059
103.0,2117350.819,-1.6,1.6,2.7,4.201,3.228,3.225,12.575,11.029
105.0,2163117.357,-1.6,1.6,2.7,4.201,3.228,3.223,12.572,11.023
107.0,2209053.424,-1.6,1.6,2.7,4.201,3.225,3.222,12.567,11.015
109.0,2247289.944,-1.6,1.6,2.7,4.2,3.216,3.213,12.548,10.943
111.0,2285844.471,-1.6,1.601,2.7,4.2,3.212,3.211,12.545,10.93
113.0,2333685.537,-1.6,1.6,2.7,4.2,3.211,3.206,12.542,10.904
115.0,2381722.752,-1.6,1.6,2.7,4.2,3.208,3.204,12.531,10.888
117.0,2429904.636,-1.6,1.6,2.7,4.2,3.204,3.199,12.518,10.862
119.0,2478575.973,-1.6,1.6,2.7,4.2,3.198,3.194,12.508,10.838
121.0,2527481.692,-1.6,1.6,2.7,4.2,3.196,3.193,12.494,10.84
123.0,2576463.816,-1.6,1.601,2.7,4.2,3.19,3.186,12.473,10.802
125.0,2625697.504,-1.6,1.6,2.7,4.201,3.185,3.181,12.456,10.783
127.0,2675379.316,-1.6,1.6,2.7,4.201,3.18,3.176,12.442,10.755
129.0,2725161.703,-1.6,1.6,2.7,4.2,3.174,3.17,12.426,10.727
131.0,2775260.877,-1.6,1.6,2.7,4.2,3.169,3.162,12.407,10.676
133.0,2825577.895,-1.6,1.6,2.7,4.2,3.162,3.158,12.389,10.671
135.0,2875376.081,-1.6,1.6,2.7,4.2,3.162,3.158,12.378,10.692
137.0,2915123.002,-1.6,1.6,2.7,4.2,2.511,2.516,9.648,8.33
139.0,2964974.429,-1.6,1.6,2.7,4.2,3.154,3.148,12.353,10.641
141.0,3014830.782,-1.6,1.6,2.7,4.201,3.149,3.145,12.338,10.63
143.0,3064794.607,-1.6,1.6,2.7,4.2,3.143,3.137,12.319,10.595
145.0,3115506.998,-1.6,1.6,2.7,4.2,3.133,3.129,12.29,10.544
147.0,3166205.157,-1.6,1.6,2.7,4.2,3.127,3.123,12.273,10.516
149.0,3216989.904,-1.6,1.6,2.7,4.2,3.121,3.116,12.249,10.487
151.0,3268210.516,-1.6,1.6,2.7,4.2,3.117,3.114,12.243,10.475
153.0,3319099.235,-1.6,1.6,2.7,4.2,3.111,3.106,12.22,10.443
155.0,3370044.753,-1.601,1.6,2.7,4.2,3.107,3.104,12.204,10.446
157.0,3420873.663,-1.6,1.6,2.7,4.2,3.102,3.098,12.184,10.412
159.0,3471813.833,-1.6,1.6,2.7,4.2,3.096,3.092,12.157,10.389
161.0,3522832.826,-1.6,1.6,2.7,4.2,3.092,3.087,12.151,10.377
163.0,3565731.54,-1.6,1.6,2.7,4.2,3.018,2.704,11.877,9.324
165.0,3604381.91,-1.6,1.6,2.7,4.2,2.688,2.687,10.639,9.263
167.0,3643173.025,-1.6,1.6,2.7,4.2,2.687,2.682,10.635,9.243
169.0,3681677.561,-1.6,1.6,2.7,4.201,2.675,2.667,10.589,9.193
171.0,3720171.508,-1.6,1.6,2.7,4.2,2.665,2.66,10.553,9.166
173.0,3758712.133,-1.6,1.6,2.7,4.2,2.671,2.663,10.576,9.176
175.0,3797264.119,-1.6,1.6,2.7,4.2,2.663,2.661,10.547,9.164
177.0,3826140.375,-1.6,1.6,2.7,4.2,1.99,2.014,7.716,6.792
179.0,3864965.666,-1.6,1.6,2.7,4.2,2.665,2.66,10.551,9.161
181.0,3903630.556,-1.6,1.6,2.7,4.2,2.657,2.658,10.525,9.151
183.0,3942172.157,-1.6,1.6,2.7,4.2,2.665,2.651,10.552,9.134
185.0,3971008.752,-1.62,1.6,2.694,4.2,1.975,2.001,7.661,6.739
187.0,4009713.749,-1.6,1.6,2.7,4.2,2.65,2.648,10.502,9.115
189.0,4048108.615,-1.6,1.6,2.7,4.2,2.649,2.641,10.493,9.086
191.0,4086509.93,-1.6,1.6,2.7,4.2,2.648,2.647,10.491,9.107
193.0,4124921.094,-1.6,1.6,2.7,4.203,2.653,2.669,10.509,9.199
195.0,4163265.108,-1.6,1.6,2.7,4.201,2.672,2.669,10.573,9.197
197.0,4201706.722,-1.6,1.6,2.7,4.201,2.672,2.677,10.576,9.227
199.0,4230793.109,-1.6,1.6,2.7,4.201,2.704,2.656,10.702,9.16
201.0,4269504.361,-1.6,1.601,2.7,4.2,2.579,2.561,10.258,8.764
203.0,4308628.556,-1.6,1.6,2.7,4.2,2.613,2.622,10.373,9.007
205.0,4347052.984,-1.601,1.6,2.7,4.2,2.634,2.633,10.443,9.05
207.0,4385423.78,-1.6,1.6,2.7,4.2,2.612,2.605,10.371,8.938
209.0,4413871.471,-1.6,1.6,2.7,4.2,1.91,1.934,7.426,6.489
211.0,4452789.539,-1.6,1.6,2.7,4.2,2.593,2.589,10.307,8.872
213.0,4491345.437,-1.6,1.6,2.7,4.2,2.606,2.603,10.348,8.935
215.0,4529918.996,-1.6,1.6,2.7,4.2,2.615,2.612,10.379,8.972
217.0,4568609.798,-1.6,1.6,2.7,4.2,2.622,2.622,10.408,9.005
219.0,4607219.724,-1.601,1.601,2.7,4.2,2.616,2.608,10.383,8.954
221.0,4645763.877,-1.6,1.6,2.7,4.2,2.589,2.589,10.292,8.876
223.0,4681359.061,-1.6,1.6,3.427,4.2,2.594,1.244,10.31,4.556