File: Li-ion_Batteries/UL-PUR_R15-EX4_18650_NCA_23C_2.5-96.5_0.5-0.5C_d_cycle_data.csv
Cycle_Index,Test_Time (s),Min_Current (A),Max_Current (A),Min_Voltage (V),Max_Voltage (V),Charge_Capacity (Ah),Discharge_Capacity (Ah),Charge_Energy (Wh),Discharge_Energy (Wh)
1.0,14110.85,-1.133,1.133,2.9,4.0,1.558,2.372,5.893,8.157
5.0,101322.649,-1.133,1.133,2.9,4.0,2.705,2.705,10.123,9.428
9.0,187998.894,-1.134,1.133,2.9,4.0,2.705,2.705,10.121,9.431
13.0,274800.594,-1.133,1.133,2.9,4.0,2.702,2.701,10.109,9.416
17.0,361676.551,-1.133,1.133,2.9,4.0,2.701,2.701,10.108,9.411
21.0,448885.477,-1.133,1.133,2.9,4.0,2.698,2.698,10.1,9.396
25.0,535478.478,-1.133,1.133,2.9,4.0,2.699,2.699,10.1,9.407
29.0,622071.483,-1.133,1.133,2.9,4.001,2.698,2.698,10.095,9.402
33.0,708722.956,-1.133,1.133,2.9,4.0,2.694,2.694,10.084,9.383
37.0,795544.48,-1.133,1.133,2.9,4.0,2.693,2.692,10.079,9.372
41.0,882734.593,-1.133,1.133,2.9,4.0,2.691,2.691,10.074,9.364
45.0,969829.879,-1.134,1.134,2.9,4.0,2.69,2.69,10.073,9.362
49.0,1049360.24,-1.6,1.134,2.9,4.0,2.323,2.326,8.603,7.891
53.0,1118060.248,-1.6,1.6,2.9,4.001,2.688,2.688,10.146,9.248
57.0,1183577.137,-1.6,1.6,2.9,4.001,2.487,2.503,9.439,8.712
61.0,1244453.527,-1.6,1.6,2.9,4.001,2.496,2.494,9.473,8.677
65.0,1305360.949,-1.6,1.6,2.9,4.001,2.488,2.48,9.443,8.63
69.0,1366271.992,-2.512,1.6,2.85,4.001,2.491,2.484,9.456,8.642
73.0,1426987.336,-1.6,1.6,2.9,4.0,2.48,2.478,9.416,8.619
77.0,1487860.568,-1.6,1.6,2.9,4.0,2.477,2.464,9.407,8.571
81.0,1548765.302,-1.6,1.6,2.9,4.001,2.483,2.478,9.426,8.615
85.0,1609678.125,-1.6,1.6,2.9,4.0,2.468,2.467,9.377,8.577
89.0,1670442.823,-1.6,1.6,2.9,4.0,2.464,2.46,9.363,8.553
93.0,1731376.036,-1.6,1.6,2.9,4.001,2.47,2.482,9.382,8.63
97.0,1792127.242,-1.6,1.6,2.9,4.001,2.487,2.486,9.441,8.645
101.0,1852793.57,-1.6,1.6,2.9,4.001,2.48,2.426,9.412,8.424
105.0,1907437.018,-1.6,1.6,2.9,4.0,2.397,2.441,9.14,8.475
109.0,1962383.087,-1.6,1.6,2.9,4.0,2.455,2.455,9.336,8.528
113.0,2017263.715,-1.6,1.6,2.9,4.0,2.444,2.441,9.299,8.477
117.0,2078482.344,-1.6,1.6,2.899,4.001,2.431,2.444,9.258,8.483
121.0,2139490.679,-1.6,1.6,2.899,4.0,2.446,2.449,9.302,8.503
125.0,2200489.765,-1.6,1.6,2.9,4.0,2.444,2.44,9.298,8.471
129.0,2261581.362,-1.6,1.6,2.9,4.0,2.429,2.429,9.247,8.431
133.0,2322579.688,-1.6,1.6,2.9,4.0,2.414,2.41,9.199,8.358
137.0,2377388.969,-1.6,1.6,2.9,4.0,2.422,2.416,9.226,8.381
141.0,2432227.088,-1.6,1.6,2.9,4.0,2.42,2.417,9.217,8.385
145.0,2493509.356,-1.6,1.6,2.9,4.0,2.412,2.411,9.191,8.363
149.0,2554516.453,-1.6,1.6,2.9,4.0,2.414,2.407,9.197,8.347
153.0,2615627.364,-1.6,1.6,2.9,4.0,2.408,2.398,9.179,8.311
157.0,2670439.805,-1.6,1.6,2.9,4.0,2.4,2.395,9.15,8.3
161.0,2725228.916,-1.6,1.6,2.9,4.0,1.827,1.832,6.865,6.217
165.0,2786458.846,-1.6,1.6,2.9,4.0,2.392,2.385,9.124,8.261
169.0,2847628.574,-1.6,1.6,2.9,4.0,2.387,2.392,9.108,8.285
173.0,2908875.054,-1.6,1.6,2.9,4.0,2.407,2.39,9.173,8.288
177.0,2970056.568,-1.6,1.6,2.9,4.0,2.381,2.385,9.087,8.26
181.0,3031233.573,-1.6,1.6,2.9,4.0,2.385,2.385,9.098,8.26
185.0,3092631.1,-1.6,1.6,2.9,4.0,2.398,2.378,9.143,8.236
189.0,3153935.489,-1.6,1.6,2.9,4.0,2.374,2.375,9.063,8.225
193.0,3208740.281,-1.6,1.6,2.9,4.0,2.382,2.383,9.095,8.252
197.0,3270114.707,-1.6,1.6,2.9,4.0,2.39,2.389,9.117,8.275
201.0,3324891.62,-1.6,1.6,2.9,4.0,2.38,2.377,9.084,8.232
205.0,3386278.343,-1.6,1.6,2.898,4.0,2.379,2.371,9.08,8.21
209.0,3447606.869,-1.6,1.6,2.9,4.0,2.37,2.373,9.052,8.218
213.0,3508886.585,-1.6,1.6,2.9,4.0,2.369,2.369,9.044,8.202
217.0,3570147.086,-1.6,1.6,2.9,4.0,2.364,2.362,9.03,8.173
221.0,3631488.208,-1.6,1.6,2.9,4.0,2.369,2.363,9.047,8.178
225.0,3692635.687,-1.6,1.6,2.9,4.0,2.363,2.359,9.026,8.163
229.0,3753995.288,-1.6,1.6,2.9,4.0,2.36,2.361,9.014,8.171
233.0,3815403.283,-1.6,1.6,2.9,4.0,2.362,2.358,9.023,8.158
237.0,3876779.769,-1.6,1.6,2.9,4.0,2.356,2.358,9.001,8.16
241.0,3938087.033,-1.6,1.6,2.9,4.0,2.351,2.353,8.984,8.141
245.0,3999393.51,-1.6,1.6,2.9,4.0,2.355,2.353,8.999,8.143
249.0,4060633.147,-1.6,1.6,2.9,4.0,2.349,2.355,8.978,8.147
253.0,4121812.815,-1.6,1.6,2.9,4.0,2.35,2.345,8.98,8.11
257.0,4183164.203,-1.6,1.6,2.9,4.0,2.349,2.346,8.978,8.116
261.0,4244410.947,-1.6,1.6,2.9,4.0,2.349,2.352,8.975,8.139
265.0,4305715.484,-1.6,1.6,2.9,4.0,2.342,2.34,8.955,8.092
269.0,4367130.472,-1.6,1.6,2.9,4.0,2.351,2.35,8.983,8.134
273.0,4414840.53,-1.6,1.6,2.9,4.0,1.752,1.758,6.596,5.951
277.0,4476407.104,-1.6,1.6,2.9,4.0,2.346,2.343,8.968,8.105
281.0,4530953.018,-1.6,1.6,2.9,4.0,1.752,1.752,6.593,5.929
285.0,4592354.06,-1.6,1.6,2.9,4.0,2.346,2.346,8.966,8.112
289.0,4653630.566,-1.6,1.6,2.9,4.0,2.332,2.327,8.92,8.042
293.0,4714954.777,-1.6,1.6,2.9,4.0,2.339,2.336,8.944,8.078
297.0,4776208.106,-1.6,1.6,2.9,4.0,2.332,2.327,8.921,8.04
301.0,4830531.517,-1.6,1.6,2.9,4.0,1.723,1.72,6.489,5.814
305.0,4892030.157,-2.145,1.6,2.868,4.0,2.331,2.358,8.917,8.143
309.0,4953414.311,-1.6,1.6,2.9,4.0,2.322,2.32,8.885,8.02
313.0,5014695.554,-1.6,1.6,2.9,4.0,2.324,2.317,8.891,8.006
317.0,5069145.035,-1.6,1.6,2.9,4.0,2.314,2.31,8.859,7.98
321.0,5130508.781,-1.6,1.6,2.9,4.0,2.333,2.324,8.921,8.035
325.0,5191916.716,-1.6,1.6,2.9,4.0,2.315,2.323,8.86,8.028
329.0,5253175.106,-1.6,1.6,2.9,4.0,2.322,2.314,8.884,7.996
333.0,5314507.472,-1.6,1.6,2.9,4.0,2.321,2.32,8.882,8.018
337.0,5375887.111,-1.6,1.6,2.899,4.0,2.298,2.29,8.803,7.904
341.0,5437268.206,-3.107,1.6,2.816,4.0,2.31,2.31,8.842,7.978
345.0,5498633.784,-1.6,1.6,2.9,4.0,2.299,2.318,8.808,8.017
349.0,5560024.167,-1.6,1.6,2.9,4.0,2.304,2.301,8.822,7.946
353.0,5620823.16,-4.606,1.6,2.855,4.0,2.302,2.104,8.814,7.348
357.0,5674560.106,-1.6,1.6,2.9,4.0,2.308,2.305,8.835,7.961
361.0,5721916.997,-1.6,1.6,2.9,4.0,2.317,2.305,8.869,7.962
365.0,5783066.605,-1.6,1.6,2.9,4.0,2.302,2.299,8.817,7.938
369.0,5842817.559,-1.6,1.6,2.9,4.0,2.296,2.289,8.794,7.901
373.0,5904137.979,-1.6,1.6,2.9,4.0,2.287,2.29,8.765,7.908
377.0,5958339.519,-1.6,1.6,2.9,4.0,2.283,2.285,8.751,7.888
381.0,6012539.557,-1.6,1.6,2.9,4.0,2.295,2.284,8.796,7.881
385.0,6072290.336,-1.6,1.6,2.9,4.0,2.286,2.285,8.762,7.885
389.0,6133620.604,-1.6,1.6,2.9,4.0,2.29,2.29,8.774,7.905
393.0,6194915.728,-1.6,1.6,2.9,4.0,2.288,2.288,8.769,7.9
397.0,6256160.874,-1.6,1.6,2.9,4.0,2.284,2.285,8.753,7.887
401.0,6317209.882,-1.6,1.6,2.899,4.0,2.285,2.272,8.755,7.838
405.0,6378445.458,-1.6,1.6,2.897,4.0,2.285,2.278,8.756,7.861
409.0,6439617.832,-3.985,1.6,2.772,4.0,2.285,2.285,8.755,7.883
413.0,6500695.153,-1.6,1.6,2.9,4.0,2.279,2.279,8.735,7.864
417.0,6561787.962,-1.6,1.6,2.9,4.0,2.256,2.255,8.66,7.772
421.0,6623005.128,-1.6,1.6,2.9,4.0,2.259,2.254,8.669,7.769
425.0,6684337.83,-1.6,1.6,2.9,4.0,2.267,2.263,8.696,7.809
429.0,6745471.934,-1.6,1.6,2.9,4.0,2.254,2.257,8.653,7.782
433.0,6806770.499,-1.6,1.6,2.9,4.0,2.25,2.246,8.637,7.741
437.0,6868138.382,-1.6,1.6,2.9,4.0,2.252,2.253,8.645,7.765
441.0,6929514.174,-1.6,1.6,2.9,4.0,2.246,2.253,8.626,7.766
445.0,6983445.395,-1.6,1.6,2.9,4.0,2.254,2.24,8.658,7.718
449.0,7044718.843,-1.6,1.6,2.9,4.0,2.255,2.253,8.654,7.769
453.0,7105996.483,-1.6,1.6,2.9,4.0,2.245,2.242,8.62,7.725
457.0,7159721.037,-1.6,1.6,2.9,4.0,1.608,1.617,6.078,5.445
461.0,7221015.491,-1.6,1.6,2.9,4.0,2.245,2.246,8.619,7.742
465.0,7282106.672,-1.6,1.6,2.9,4.0,2.247,2.242,8.625,7.732
469.0,7343283.952,-1.744,1.6,2.888,4.0,2.238,2.24,8.597,7.721
473.0,7404487.128,-1.6,1.6,2.9,4.0,2.24,2.241,8.601,7.722
477.0,7465664.828,-1.6,1.6,2.9,4.0,2.231,2.232,8.571,7.689
481.0,7526830.042,-1.6,1.6,2.9,4.0,2.243,2.237,8.611,7.708
485.0,7588022.86,-1.6,1.6,2.9,4.0,2.24,2.236,8.602,7.707
489.0,7649275.259,-1.721,1.6,2.889,4.0,2.232,2.235,8.574,7.703
493.0,7710256.419,-1.6,1.6,2.9,4.0,2.234,2.228,8.58,7.676
497.0,7771352.857,-1.716,1.6,2.89,4.0,2.232,2.234,8.573,7.695
501.0,7832368.63,-1.6,1.6,2.9,4.0,2.231,2.231,8.569,7.687
505.0,7893459.045,-1.6,1.6,2.9,4.0,2.229,2.227,8.564,7.671
509.0,7954497.548,-1.6,1.6,2.9,4.0,2.226,2.224,8.554,7.66
513.0,8015535.416,-1.6,1.6,2.9,4.0,2.224,2.22,8.548,7.647
517.0,8076580.642,-1.6,1.6,2.9,4.0,2.226,2.223,8.554,7.662
521.0,8137553.523,-1.6,1.6,2.9,4.0,2.232,2.222,8.574,7.658
525.0,8198455.156,-2.444,1.6,2.85,4.0,2.228,2.227,8.559,7.675
529.0,8259463.807,-1.6,1.6,2.9,4.0,2.209,2.204,8.495,7.585
533.0,8320702.378,-1.6,1.6,2.9,4.0,2.206,2.208,8.488,7.604
537.0,8374405.202,-4.225,1.6,2.759,4.0,2.195,2.193,8.449,7.54
541.0,8435435.052,-1.6,1.6,2.9,4.0,2.206,2.195,8.485,7.553
545.0,8496551.36,-1.6,1.6,2.9,4.0,2.209,2.205,8.496,7.593
549.0,8550241.394,-1.6,1.6,2.9,4.0,2.198,2.2,8.458,7.568
553.0,8611280.749,-3.991,1.6,2.769,4.0,2.204,2.201,8.479,7.575
557.0,8672380.893,-1.6,1.6,2.9,4.0,2.201,2.201,8.469,7.574
561.0,8733390.836,-1.6,1.6,2.9,4.0,2.2,2.201,8.465,7.576
565.0,8794483.187,-1.6,1.6,2.9,4.0,2.2,2.198,8.463,7.566
569.0,8848043.725,-1.6,1.6,2.9,4.0,2.208,2.184,8.5,7.511
573.0,8909023.73,-1.6,1.6,2.9,4.0,2.189,2.186,8.428,7.52
577.0,8969964.513,-1.6,1.6,2.9,4.0,2.191,2.192,8.433,7.543
581.0,9030788.96,-1.6,1.6,2.9,4.0,2.188,2.19,8.421,7.535
585.0,9091654.238,-1.6,1.6,2.9,4.0,2.184,2.181,8.41,7.501
589.0,9152815.777,-1.6,1.6,2.9,4.0,2.155,2.159,8.313,7.416
593.0,9206330.197,-1.649,1.6,2.893,4.0,2.189,2.175,8.436,7.477
597.0,9267252.324,-1.61,1.6,2.895,4.0,2.172,2.166,8.369,7.445
601.0,9328186.42,-1.6,1.6,2.9,4.001,2.179,2.178,8.392,7.492
605.0,9389244.943,-1.6,1.6,2.9,4.0,2.175,2.175,8.379,7.48
609.0,9450076.397,-1.6,1.6,2.9,4.0,2.179,2.177,8.391,7.484
613.0,9511013.618,-1.6,1.6,2.9,4.0,2.176,2.182,8.38,7.508
617.0,9564380.241,-1.6,1.6,2.898,4.0,2.181,2.178,8.4,7.491
621.0,9625281.26,-1.6,1.6,2.9,4.0,2.167,2.172,8.349,7.471
625.0,9678528.803,-1.6,1.6,2.9,4.0,1.529,1.547,5.79,5.192
629.0,9739584.837,-1.6,1.6,2.9,4.001,2.176,2.173,8.379,7.475
633.0,9792680.16,-1.6,1.6,2.9,4.0,1.51,1.532,5.723,5.138
637.0,9853564.369,-1.6,1.6,2.9,4.001,2.17,2.166,8.361,7.448
641.0,9914554.912,-1.6,1.6,2.9,4.0,2.155,2.156,8.311,7.405
645.0,9975535.571,-1.6,1.6,2.9,4.0,2.154,2.159,8.305,7.418
648.0,10018651.64,-1.6,1.6,3.409,4.0,2.161,1.154,8.329,4.166